Data from JCR0014_SupralabialWhite_Reflection_00003.txt Node
Date: Thu Jul 23 15:02:31 ACST 2020
User: Stacey Dix
Spectrometer: MAYP113282
Scans to average: 1
Trigger mode: 0
Integration Time (sec): 1.000000E-1
Electric dark correction enabled: true
Boxcar width: 0
XAxis mode: Wavelengths
Number of Pixels in Spectrum: 2068
>>>>>Begin Spectral Data<<<<<
198.791	-1266.67
199.266	1066.67
199.74	-9.52
200.215	-47.62
200.69	25.7
201.164	73.78
201.639	13.15
202.114	47.75
202.588	73.25
203.063	38.6
203.537	-21.51
204.012	41.95
204.486	15.35
204.961	52.11
205.435	27.1
205.909	14.04
206.384	51.25
206.858	52.92
207.332	32.46
207.807	48.84
208.281	41.85
208.755	30.03
209.229	37.66
209.703	48.05
210.177	54.13
210.651	47.69
211.126	40.92
211.6	37.47
212.074	42.3
212.548	57.74
213.021	43.5
213.495	40.11
213.969	41.46
214.443	50.65
214.917	33.57
215.391	41.03
215.864	51.07
216.338	37.89
216.812	40.32
217.286	39.47
217.759	34.99
218.233	13.52
218.706	40.08
219.18	27.18
219.654	39.87
220.127	23.75
220.6	35.64
221.074	20.43
221.547	16.16
222.021	37.81
222.494	44.64
222.967	19.98
223.441	17.36
223.914	22.82
224.387	32.17
224.86	22.22
225.334	19.98
225.807	28.63
226.28	16.03
226.753	32.97
227.226	16.55
227.699	12.43
228.172	17.94
228.645	5.22
229.118	18.45
229.591	13.31
230.064	15.88
230.537	20.24
231.01	15.29
231.482	14.88
231.955	11.47
232.428	10.83
232.901	8.77
233.373	8.32
233.846	9.39
234.319	7.96
234.791	17.2
235.264	12.95
235.736	6.17
236.209	12.8
236.681	11.33
237.154	9.13
237.626	13.44
238.099	10.99
238.571	10.87
239.044	12.26
239.516	12.24
239.988	10.71
240.46	11.06
240.933	12.71
241.405	10.91
241.877	9.26
242.349	10.88
242.821	7.98
243.293	11.93
243.765	9.78
244.237	13.19
244.71	9.42
245.181	11.63
245.653	15.38
246.125	9.09
246.597	12.62
247.069	11.45
247.541	11.04
248.013	10.78
248.485	8.47
248.956	6.65
249.428	8.98
249.9	12.44
250.371	9.86
250.843	8.06
251.315	8.4
251.786	8.15
252.258	8.63
252.729	9.81
253.201	6.59
253.672	6.79
254.144	7.43
254.615	7.45
255.086	9.42
255.558	7.2
256.029	6.65
256.5	9.35
256.972	7.74
257.443	8.16
257.914	7.12
258.385	6.92
258.856	5.5
259.327	8.51
259.799	6.79
260.27	6.05
260.741	6.86
261.212	7.75
261.683	7.18
262.154	7.6
262.624	6.21
263.095	6.2
263.566	6.18
264.037	6.29
264.508	7.98
264.979	6.04
265.449	6.82
265.92	5.79
266.391	7.15
266.861	5.52
267.332	8.08
267.803	4.89
268.273	5.98
268.744	6.23
269.214	7.82
269.685	6.18
270.155	5.42
270.626	5.66
271.096	5.17
271.566	5.78
272.037	5.06
272.507	7.07
272.977	7.86
273.448	7.39
273.918	7.45
274.388	4.94
274.858	9.5
275.328	4.37
275.798	4.32
276.268	6.97
276.738	9.02
277.208	4.49
277.678	6.64
278.148	4.28
278.618	4.54
279.088	6.56
279.558	8.13
280.028	4.66
280.498	5.97
280.968	5.52
281.437	6.74
281.907	6.91
282.377	6.36
282.847	5.21
283.316	6.05
283.786	6.19
284.255	5.74
284.725	6.79
285.194	6.18
285.664	6.06
286.133	4.55
286.603	3.8
287.072	5.21
287.542	5.51
288.011	4.91
288.48	5.38
288.95	5.44
289.419	6.88
289.888	5.77
290.357	6.79
290.827	5.37
291.296	4.5
291.765	5.7
292.234	5.25
292.703	6.3
293.172	8.01
293.641	5.1
294.11	3.6
294.579	7.68
295.048	5.64
295.517	5.4
295.986	6.54
296.455	6.16
296.923	5.33
297.392	7.33
297.861	7.88
298.33	7.17
298.798	4.97
299.267	6.65
299.736	6.69
300.204	7.52
300.673	7.22
301.141	6.95
301.61	6.78
302.079	7.95
302.547	6.21
303.015	7.59
303.484	7.8
303.952	7.37
304.421	6.96
304.889	4.95
305.357	8.87
305.825	6.77
306.294	7.24
306.762	7.51
307.23	6.33
307.698	7.65
308.166	8.15
308.634	8.01
309.103	8.06
309.571	7.95
310.039	9.51
310.507	7.19
310.975	7.3
311.442	9.87
311.91	9.32
312.378	7.82
312.846	7.36
313.314	7.73
313.782	10.05
314.249	7.86
314.717	10.39
315.185	10.46
315.652	9.62
316.12	8.47
316.588	9.06
317.055	9.66
317.523	9.57
317.99	11.86
318.458	11.02
318.925	10.49
319.393	11.05
319.86	10.57
320.328	11.57
320.795	8.92
321.262	11.59
321.73	11.3
322.197	10.58
322.664	13.39
323.131	12.57
323.598	13.61
324.066	13.86
324.533	14.83
325	16.27
325.467	18.28
325.934	17.56
326.401	20.19
326.868	22.61
327.335	21.37
327.802	22.5
328.269	25.07
328.735	26.38
329.202	27.02
329.669	29.78
330.136	32.36
330.603	34.07
331.069	36.45
331.536	36.37
332.003	39.17
332.469	40.46
332.936	43.58
333.402	43.4
333.869	44.33
334.336	45.52
334.802	48.1
335.268	49.35
335.735	52.3
336.201	50.37
336.668	53.37
337.134	55.39
337.6	57.04
338.067	57.71
338.533	60.17
338.999	59.02
339.465	57.33
339.931	55.27
340.398	58.95
340.864	58.72
341.33	60.95
341.796	56.25
342.262	59.69
342.728	61.07
343.194	61.06
343.66	59.65
344.126	59.96
344.592	58.44
345.057	60.47
345.523	61.25
345.989	57.38
346.455	61.71
346.921	60.24
347.386	61.01
347.852	60.31
348.318	60.37
348.783	57.41
349.249	60.4
349.714	59.63
350.18	59.06
350.645	60.49
351.111	58.54
351.576	59.88
352.042	58.11
352.507	57.85
352.973	58.99
353.438	59.08
353.903	58.35
354.369	58.95
354.834	56.4
355.299	55.54
355.764	58.23
356.229	57.94
356.695	56.5
357.16	57.71
357.625	57.74
358.09	60.48
358.555	57.5
359.02	57.6
359.485	60.04
359.95	56.66
360.415	60.11
360.879	58.2
361.344	58.53
361.809	54.9
362.274	60.58
362.739	53.9
363.203	60.73
363.668	58.18
364.133	56.9
364.597	55.86
365.062	56.85
365.527	57.96
365.991	54.25
366.456	55.57
366.92	55.87
367.385	55.82
367.849	54.98
368.314	56.65
368.778	54.6
369.242	56.4
369.707	55.88
370.171	54.6
370.635	56.09
371.1	56.37
371.564	56.47
372.028	56.08
372.492	56.51
372.956	55.8
373.42	53.67
373.884	55.52
374.348	55.54
374.812	52.58
375.276	54.42
375.74	54.34
376.204	53.86
376.668	53.95
377.132	52.41
377.596	55.61
378.06	51.29
378.524	52.95
378.987	52.77
379.451	55.93
379.915	54.69
380.378	54.38
380.842	52.61
381.306	53.72
381.769	50.55
382.233	52.28
382.696	53.25
383.16	52.14
383.623	51.09
384.087	51.04
384.55	52.22
385.014	50.43
385.477	50.36
385.94	55.7
386.404	51.78
386.867	54.25
387.33	52.41
387.793	52.13
388.256	54.12
388.72	49.77
389.183	51.28
389.646	51.89
390.109	52.04
390.572	50.75
391.035	51.38
391.498	54.22
391.961	51.73
392.424	50.45
392.887	50.3
393.35	49.9
393.812	50.63
394.275	49.43
394.738	52.09
395.201	52.11
395.664	50.31
396.126	50.31
396.589	49.73
397.052	51.03
397.514	47.92
397.977	46.92
398.439	50.31
398.902	50.2
399.364	49.39
399.827	49.83
400.289	49.36
400.752	47.02
401.214	47.68
401.676	47.04
402.139	46.52
402.601	49.5
403.063	46.51
403.525	48.13
403.988	46.52
404.45	47.39
404.912	45.92
405.374	48.34
405.836	44.82
406.298	49.26
406.76	46.05
407.222	46.32
407.684	45.98
408.146	45.75
408.608	45.73
409.07	46.65
409.532	45.18
409.994	44.96
410.456	44.3
410.917	44.87
411.379	46.47
411.841	42.89
412.303	46.33
412.764	44.03
413.226	43.67
413.687	43.42
414.149	45.71
414.611	43.62
415.072	44.93
415.534	44.02
415.995	45.12
416.457	46.13
416.918	43.93
417.379	43.69
417.841	44.65
418.302	44.61
418.763	44.83
419.225	45.04
419.686	44.02
420.147	41.49
420.608	41.66
421.069	44.59
421.53	42.56
421.991	42.45
422.453	44.83
422.914	46.79
423.375	45.96
423.836	49.3
424.297	46.81
424.757	47.33
425.218	44.87
425.679	48.35
426.14	45.97
426.601	48.31
427.062	44.37
427.522	46.56
427.983	45.13
428.444	44.56
428.904	50.04
429.365	48.96
429.826	48
430.286	45.98
430.747	44.35
431.207	46.72
431.668	49.22
432.128	48.01
432.589	48.94
433.049	47.33
433.509	45.72
433.97	48.29
434.43	48.09
434.89	46.18
435.351	49.7
435.811	46.76
436.271	50.84
436.731	45.55
437.191	45.03
437.651	50.04
438.112	50.93
438.572	49.9
439.032	51.89
439.492	48.06
439.952	52.23
440.412	49.61
440.871	47.77
441.331	47.27
441.791	51.58
442.251	52.28
442.711	46.66
443.171	49.54
443.63	49.58
444.09	48.25
444.55	46.73
445.009	51.39
445.469	45.08
445.929	48.15
446.388	52.06
446.848	50.86
447.307	47.6
447.767	47.27
448.226	47.8
448.686	45.86
449.145	49.17
449.604	46.31
450.064	48.85
450.523	47.88
450.982	48.08
451.442	50.59
451.901	49.45
452.36	50.04
452.819	52.4
453.278	52.96
453.737	51.73
454.197	49.3
454.656	48.74
455.115	52.39
455.574	51.96
456.033	47.35
456.492	54.2
456.95	50.17
457.409	47.8
457.868	51.83
458.327	52.33
458.786	47.28
459.245	51.79
459.703	50.63
460.162	50.78
460.621	50.09
461.079	48.03
461.538	49.3
461.997	50.56
462.455	49.85
462.914	48.62
463.372	51.84
463.831	50.66
464.289	53.27
464.748	50.75
465.206	51.79
465.664	53.64
466.123	52.27
466.581	50.04
467.039	53.45
467.497	51.74
467.956	50.29
468.414	48.99
468.872	52.23
469.33	53.61
469.788	47.9
470.246	47.01
470.704	49.74
471.162	53.35
471.62	51.79
472.078	53.12
472.536	53.68
472.994	52.85
473.452	49.58
473.91	50.51
474.368	52.4
474.826	50.48
475.283	51.28
475.741	50.32
476.199	55.06
476.656	53.43
477.114	49.83
477.572	52.48
478.029	49.78
478.487	51.39
478.944	53.62
479.402	49.99
479.859	56.11
480.317	54.57
480.774	51.63
481.232	50.86
481.689	53.17
482.146	51.83
482.604	51.83
483.061	50.91
483.518	53.66
483.975	54.67
484.433	51.57
484.89	50.91
485.347	56.66
485.804	51.8
486.261	54.43
486.718	50.53
487.175	50.55
487.632	54.12
488.089	55.8
488.546	51.75
489.003	55.41
489.46	52.56
489.917	57.23
490.373	50.74
490.83	52.52
491.287	53.07
491.744	52.67
492.2	54.5
492.657	50.52
493.114	52.13
493.57	52.83
494.027	54.15
494.484	55.62
494.94	48.96
495.397	53.68
495.853	55.82
496.31	54.93
496.766	51.75
497.222	54.53
497.679	54.8
498.135	53.85
498.591	52.47
499.048	53.51
499.504	53.85
499.96	52.6
500.416	54.22
500.872	54.75
501.329	55.56
501.785	61.78
502.241	53.52
502.697	53.94
503.153	55.35
503.609	53.82
504.065	55.53
504.521	53.94
504.977	56.48
505.432	57.12
505.888	55.95
506.344	58.46
506.8	52.26
507.256	58.84
507.711	59.01
508.167	57.38
508.623	58.09
509.078	56.48
509.534	61.15
509.99	61.83
510.445	58.21
510.901	58.87
511.356	64.08
511.812	57.12
512.267	57.78
512.722	58.19
513.178	57.44
513.633	57.36
514.089	60.23
514.544	58.38
514.999	58.49
515.454	60.77
515.91	57.24
516.365	59.61
516.82	59.98
517.275	59.21
517.73	58.14
518.185	58.98
518.64	64.07
519.095	60.68
519.55	61.39
520.005	62.07
520.46	60.76
520.915	61.28
521.37	59.06
521.825	62.08
522.28	62.75
522.734	60.03
523.189	61.53
523.644	58.15
524.099	58.06
524.553	58.5
525.008	57.49
525.462	61.33
525.917	64.77
526.372	55.53
526.826	61.36
527.281	62.45
527.735	60.04
528.19	61.94
528.644	61.52
529.098	59.29
529.553	59.94
530.007	58.21
530.461	59.83
530.916	63.75
531.37	59.01
531.824	62
532.278	60.51
532.732	59.05
533.186	62.85
533.641	61.24
534.095	60
534.549	58.11
535.003	62.39
535.457	59.16
535.911	56.99
536.365	62.6
536.818	59.47
537.272	63.35
537.726	59.92
538.18	58.59
538.634	63.93
539.087	59.43
539.541	61.47
539.995	59.43
540.449	63.85
540.902	57.22
541.356	59.52
541.809	61.62
542.263	60.51
542.716	61.59
543.17	61.2
543.623	61.02
544.077	60.1
544.53	61.29
544.984	58.48
545.437	60.43
545.89	57.94
546.344	60.75
546.797	63.41
547.25	61.74
547.703	61.32
548.157	61.17
548.61	61.39
549.063	61.4
549.516	63.15
549.969	65.07
550.422	61.07
550.875	60.9
551.328	62.03
551.781	62.42
552.234	59.32
552.687	65.91
553.14	59.9
553.592	64.49
554.045	60.45
554.498	63.95
554.951	64.76
555.404	64.3
555.856	61.41
556.309	65.65
556.762	62.91
557.214	63.62
557.667	63.38
558.119	62.17
558.572	64.28
559.024	66.45
559.477	63
559.929	65.06
560.382	63.11
560.834	61.56
561.286	61.08
561.739	63.94
562.191	62.88
562.643	64.81
563.095	65.13
563.548	64.31
564	62.03
564.452	62.19
564.904	64.1
565.356	62.21
565.808	62.43
566.26	66.08
566.712	62.36
567.164	66.24
567.616	61.09
568.068	63.98
568.52	61.39
568.972	62.44
569.424	65.46
569.876	65.99
570.327	63.77
570.779	63.92
571.231	62.23
571.682	64.46
572.134	64.9
572.586	63.12
573.037	64
573.489	62.1
573.941	65.5
574.392	64.23
574.844	65.05
575.295	66.82
575.746	63.37
576.198	64.11
576.649	66.21
577.101	64.32
577.552	65.88
578.003	62.72
578.454	64.25
578.906	64.59
579.357	63.79
579.808	63.55
580.259	64.6
580.71	65.19
581.161	64.79
581.612	64.21
582.064	64.33
582.515	66.21
582.965	66.48
583.416	66.4
583.867	63.1
584.318	63.69
584.769	64.67
585.22	64.19
585.671	61.42
586.122	62.76
586.572	65.73
587.023	63.22
587.474	66.27
587.924	65.55
588.375	66.22
588.826	64.53
589.276	65.12
589.727	66.23
590.177	64.34
590.628	65.29
591.078	65.69
591.529	64.81
591.979	67.62
592.429	66.68
592.88	66.75
593.33	66.13
593.78	64.78
594.231	66.16
594.681	66.23
595.131	64.75
595.581	67.83
596.031	64.79
596.481	66.55
596.932	64.53
597.382	66.39
597.832	65.76
598.282	67.05
598.732	64.76
599.182	68.48
599.632	67.9
600.081	67.72
600.531	68.38
600.981	66.44
601.431	63.72
601.881	68.24
602.33	66.27
602.78	65.96
603.23	66.48
603.679	65.43
604.129	63.85
604.579	64.81
605.028	65.76
605.478	66.54
605.927	69.97
606.377	64.52
606.826	64.97
607.276	67.09
607.725	67.26
608.175	68.16
608.624	64.73
609.073	64.73
609.522	66.12
609.972	66.81
610.421	68.26
610.87	66.97
611.319	66.45
611.768	65.68
612.218	65.9
612.667	64.44
613.116	66.22
613.565	66.49
614.014	64.61
614.463	66.1
614.912	64.21
615.361	65.02
615.81	67.16
616.258	68.51
616.707	65.4
617.156	67.88
617.605	67.29
618.054	66.94
618.502	66.95
618.951	68.89
619.4	68.53
619.848	67.96
620.297	66.42
620.745	67.73
621.194	64.15
621.642	66.89
622.091	67.02
622.539	64.97
622.988	65.76
623.436	65.16
623.885	64.47
624.333	66.82
624.781	65.93
625.23	69.22
625.678	66.77
626.126	66.59
626.574	68.28
627.022	68.44
627.471	65.85
627.919	67.16
628.367	66.93
628.815	65.3
629.263	66.4
629.711	66.31
630.159	66.51
630.607	67.25
631.055	67.81
631.503	68.92
631.95	66.73
632.398	67.54
632.846	68.2
633.294	67.32
633.742	65.56
634.189	67.49
634.637	66.6
635.085	66.7
635.532	67.32
635.98	65.76
636.427	65.99
636.875	69.04
637.323	65.1
637.77	65.8
638.217	67.54
638.665	67.01
639.112	66.56
639.56	67.83
640.007	66.51
640.454	67.36
640.902	67.63
641.349	68.33
641.796	64.62
642.243	67.05
642.69	67.02
643.138	65.7
643.585	66.97
644.032	66.49
644.479	66.49
644.926	67.18
645.373	66.46
645.82	68.21
646.267	67.44
646.714	68.92
647.161	67.22
647.607	65.57
648.054	65.91
648.501	68.56
648.948	68.23
649.395	66.67
649.841	65.51
650.288	67.55
650.735	68.33
651.181	66.96
651.628	67.39
652.075	66.53
652.521	67.23
652.968	67.59
653.414	65.54
653.861	68.4
654.307	67.66
654.753	67.39
655.2	67.92
655.646	66.09
656.092	65.32
656.539	67.09
656.985	66.52
657.431	67.91
657.877	66.51
658.324	68.34
658.77	66.52
659.216	67.26
659.662	66.72
660.108	68.45
660.554	67.28
661	67.07
661.446	65.55
661.892	68.65
662.338	67.28
662.784	65.92
663.23	66.23
663.675	67.58
664.121	67.61
664.567	69.16
665.013	68.91
665.458	67.12
665.904	67.46
666.35	66
666.795	67.12
667.241	67.22
667.687	67.6
668.132	66.53
668.578	66.37
669.023	67.36
669.469	67.41
669.914	67.76
670.359	67.99
670.805	68.18
671.25	67.3
671.695	67.56
672.141	64.42
672.586	69.91
673.031	66.09
673.476	67.43
673.922	66.45
674.367	65.45
674.812	67.73
675.257	66.35
675.702	68.78
676.147	68.68
676.592	67.22
677.037	68.8
677.482	67.34
677.927	68.85
678.372	67.39
678.817	67.52
679.261	67.12
679.706	68
680.151	68.33
680.596	67.25
681.04	67.31
681.485	66.82
681.93	68.39
682.374	68.02
682.819	67.23
683.264	67.21
683.708	68.33
684.153	66.23
684.597	68.98
685.042	66.21
685.486	67.04
685.93	69.36
686.375	66.06
686.819	67.26
687.263	65.9
687.708	67.57
688.152	69
688.596	67.9
689.04	67.32
689.485	68.32
689.929	67.7
690.373	68.04
690.817	67.67
691.261	66.24
691.705	66.37
692.149	68.79
692.593	68.26
693.037	67.25
693.481	67.57
693.925	67.63
694.369	67.16
694.812	66.21
695.256	65.99
695.7	66.79
696.144	67.21
696.587	65.71
697.031	67.78
697.475	67
697.918	67.81
698.362	67.37
698.806	67.44
699.249	65.8
699.693	66.42
700.136	66.82
700.58	67.27
701.023	66.07
701.466	67.49
701.91	67.78
702.353	66.67
702.796	68.28
703.24	67.82
703.683	66.66
704.126	66.69
704.569	67.33
705.013	65.74
705.456	66.13
705.899	67.17
706.342	67.52
706.785	66.6
707.228	68.01
707.671	65.81
708.114	66.04
708.557	67.64
709	66.97
709.443	65.87
709.886	65.74
710.328	66.15
710.771	67.13
711.214	66.54
711.657	67.43
712.099	66.02
712.542	66.84
712.985	65.56
713.427	67.23
713.87	66.5
714.313	68.1
714.755	66.92
715.198	66.98
715.64	66.82
716.083	65.74
716.525	66.95
716.967	67.03
717.41	67.79
717.852	66.75
718.295	66.59
718.737	67.97
719.179	67.71
719.621	67.3
720.063	68.2
720.506	68.26
720.948	66.4
721.39	66.56
721.832	65.32
722.274	67.03
722.716	65.5
723.158	67.06
723.6	65.36
724.042	67.09
724.484	67.97
724.926	67.98
725.368	65.34
725.81	66.17
726.251	65.67
726.693	67.44
727.135	68.08
727.577	66.71
728.018	66.63
728.46	65.47
728.902	65.51
729.343	66.26
729.785	67.62
730.226	66.46
730.668	65.03
731.109	66.8
731.551	66.56
731.992	66.32
732.434	67.91
732.875	65.5
733.316	67.68
733.758	65.84
734.199	66.2
734.64	65.58
735.081	67
735.523	65.92
735.964	68.63
736.405	66.11
736.846	67.13
737.287	66.53
737.728	66.51
738.169	65.45
738.61	67.07
739.051	64.9
739.492	66.06
739.933	67.03
740.374	65.74
740.815	65.32
741.256	66.29
741.696	67.19
742.137	67.01
742.578	67.08
743.019	65.05
743.459	65.53
743.9	66.07
744.341	67.91
744.781	66.7
745.222	65.74
745.662	66.33
746.103	67.07
746.543	64.29
746.984	66.83
747.424	66.12
747.865	67.93
748.305	66.07
748.745	65.48
749.186	64.87
749.626	66.56
750.066	65.88
750.506	67.63
750.947	65.45
751.387	66.94
751.827	65.72
752.267	65.76
752.707	64.93
753.147	64.92
753.587	65.73
754.027	65.52
754.467	67.41
754.907	65.48
755.347	64.81
755.787	65.06
756.227	65.97
756.667	67.24
757.107	66.82
757.546	66.92
757.986	65.74
758.426	66.98
758.865	65.96
759.305	67.67
759.745	65.13
760.184	67.05
760.624	65.56
761.063	67.61
761.503	66
761.943	65.43
762.382	66.52
762.821	65.88
763.261	65.6
763.7	65.05
764.14	66.04
764.579	66.42
765.018	65.17
765.457	65.48
765.897	65.49
766.336	65.59
766.775	66.24
767.214	65.66
767.653	65.36
768.092	65.82
768.531	65.74
768.97	67.02
769.409	66.82
769.848	64.83
770.287	66.95
770.726	66.44
771.165	66.49
771.604	66.62
772.043	64.56
772.482	66.41
772.92	65.56
773.359	66.64
773.798	65.34
774.237	65.7
774.675	65.86
775.114	66.52
775.553	64.2
775.991	67.21
776.43	66.66
776.868	66.12
777.307	65.07
777.745	66.45
778.184	66.11
778.622	65.9
779.06	66.58
779.499	65.34
779.937	65.57
780.375	66.72
780.814	65.86
781.252	66.33
781.69	65.13
782.128	65.46
782.566	65.35
783.004	64.73
783.443	66.56
783.881	64.94
784.319	66.68
784.757	66.7
785.195	64.11
785.633	65.29
786.071	64.71
786.508	65.29
786.946	65.9
787.384	66.83
787.822	67.07
788.26	66.12
788.697	65.57
789.135	66.92
789.573	66.6
790.011	66
790.448	65.93
790.886	66.07
791.323	65.05
791.761	66.84
792.198	66.38
792.636	64.97
793.073	65.07
793.511	64.26
793.948	65.78
794.386	66
794.823	65.94
795.26	65.68
795.698	64.24
796.135	65.84
796.572	65.18
797.009	66.85
797.446	66.02
797.884	66.46
798.321	65.95
798.758	65.85
799.195	64.34
799.632	65.51
800.069	64.7
800.506	66.23
800.943	65.68
801.38	65.42
801.817	65.31
802.254	64.18
802.69	65.79
803.127	65.58
803.564	65.67
804.001	65.07
804.438	65.89
804.874	65.07
805.311	64.82
805.748	66.36
806.184	64.38
806.621	66.47
807.057	64.69
807.494	66.77
807.93	65.94
808.367	66.68
808.803	65.57
809.24	65.63
