Data from JCR0018_SupralabialWhite_Reflection_00002.txt Node
Date: Thu Jul 23 16:35:15 ACST 2020
User: Stacey Dix
Spectrometer: MAYP113282
Scans to average: 1
Trigger mode: 0
Integration Time (sec): 1.000000E-1
Electric dark correction enabled: true
Boxcar width: 0
XAxis mode: Wavelengths
Number of Pixels in Spectrum: 2068
>>>>>Begin Spectral Data<<<<<
198.791	-650
199.266	100
199.74	-50
200.215	0
200.69	9.59
201.164	2.82
201.639	-10.99
202.114	25
202.588	-1.08
203.063	-1.16
203.537	7.27
204.012	23.93
204.486	-3.03
204.961	12.61
205.435	-2.88
205.909	14.52
206.384	-0.75
206.858	-7.48
207.332	11.02
207.807	4.2
208.281	30.6
208.755	9.63
209.229	3.51
209.703	9.15
210.177	11.11
210.651	-4.9
211.126	10.37
211.6	3.29
212.074	10.81
212.548	12.12
213.021	12.42
213.495	14.18
213.969	3.92
214.443	6.74
214.917	13.29
215.391	7.81
215.864	0
216.338	-1.1
216.812	9.17
217.286	-7.54
217.759	15.48
218.233	8.64
218.706	4.46
219.18	10.98
219.654	9.79
220.127	6.93
220.6	3.44
221.074	2.41
221.547	10.23
222.021	2.82
222.494	-0.97
222.967	8.38
223.441	-3.91
223.914	8.75
224.387	5.97
224.86	6.18
225.334	0
225.807	2.96
226.28	4.16
226.753	0
227.226	2.42
227.699	4.39
228.172	2.01
228.645	5.42
229.118	4.01
229.591	2.6
230.064	1.87
230.537	0.47
231.01	2.73
231.482	2.65
231.955	1.13
232.428	1.68
232.901	0
233.373	1.15
233.846	1.99
234.319	2.88
234.791	0.73
235.264	1.34
235.736	0.58
236.209	0.38
236.681	1.55
237.154	1.88
237.626	1.83
238.099	1.14
238.571	2.47
239.044	2.41
239.516	1.51
239.988	0.67
240.46	2.44
240.933	0.89
241.405	1.8
241.877	0.9
242.349	1.59
242.821	2.07
243.293	2.44
243.765	1.61
244.237	1.86
244.71	0.99
245.181	0.38
245.653	1.64
246.125	2.02
246.597	1.16
247.069	0.98
247.541	2.46
248.013	1.73
248.485	0.64
248.956	1.66
249.428	0.46
249.9	1.68
250.371	1.21
250.843	1.24
251.315	0.63
251.786	1.98
252.258	0.48
252.729	0.86
253.201	1.36
253.672	1.21
254.144	1.13
254.615	1.38
255.086	0.81
255.558	0.68
256.029	0.39
256.5	1.18
256.972	0.92
257.443	0.69
257.914	1.23
258.385	1.07
258.856	1.51
259.327	0.93
259.799	0.76
260.27	1.32
260.741	0.69
261.212	1.1
261.683	0.4
262.154	0.79
262.624	1.01
263.095	0.69
263.566	1.61
264.037	0.83
264.508	0.39
264.979	1.04
265.449	0.89
265.92	1.1
266.391	0.53
266.861	1.13
267.332	0.41
267.803	1.14
268.273	1.12
268.744	0.32
269.214	0.75
269.685	0.53
270.155	0.74
270.626	1.1
271.096	1.32
271.566	0.91
272.037	1.48
272.507	0.71
272.977	0.07
273.448	0.51
273.918	1.1
274.388	1.38
274.858	0.41
275.328	0.85
275.798	0.83
276.268	0.33
276.738	0.04
277.208	0.34
277.678	0.62
278.148	1.06
278.618	-0.42
279.088	0.97
279.558	0.67
280.028	0.54
280.498	0.84
280.968	0.52
281.437	0.82
281.907	0.67
282.377	0.35
282.847	0.21
283.316	0.82
283.786	0.27
284.255	0.38
284.725	0.79
285.194	1.18
285.664	1.06
286.133	0.59
286.603	0.66
287.072	0.72
287.542	1.43
288.011	0.51
288.48	-0.03
288.95	1.13
289.419	0.88
289.888	0.69
290.357	0.76
290.827	0.45
291.296	0.82
291.765	0.48
292.234	0.82
292.703	0.62
293.172	0.59
293.641	0.84
294.11	0.46
294.579	0.53
295.048	1.23
295.517	0.76
295.986	0.5
296.455	0.8
296.923	0.51
297.392	0.25
297.861	0.12
298.33	0.31
298.798	1.03
299.267	0.82
299.736	1.22
300.204	0.06
300.673	0.5
301.141	0.74
301.61	0.86
302.079	0.5
302.547	1.76
303.015	0.8
303.484	0.78
303.952	1.01
304.421	0.71
304.889	1.69
305.357	0.9
305.825	1.07
306.294	0.65
306.762	1.58
307.23	0.82
307.698	1.62
308.166	0.67
308.634	1.53
309.103	1.42
309.571	0.88
310.039	1.63
310.507	1.25
310.975	0.86
311.442	1.45
311.91	1.13
312.378	1.59
312.846	1.48
313.314	1.8
313.782	1.08
314.249	1.61
314.717	1.55
315.185	1.38
315.652	1.75
316.12	1.61
316.588	1.69
317.055	1.48
317.523	1.4
317.99	1.4
318.458	1.74
318.925	1.27
319.393	1.23
319.86	1.98
320.328	2.15
320.795	1.08
321.262	2.11
321.73	1.91
322.197	1.79
322.664	1.37
323.131	1.19
323.598	2.02
324.066	2.27
324.533	1.58
325	1.97
325.467	3.28
325.934	2.83
326.401	2.43
326.868	2.47
327.335	3.23
327.802	3.99
328.269	3.32
328.735	3.92
329.202	4.94
329.669	4.4
330.136	4.93
330.603	5.05
331.069	5.17
331.536	6.31
332.003	5.08
332.469	6.07
332.936	6.58
333.402	6.68
333.869	7.07
334.336	6.15
334.802	6.73
335.268	6.65
335.735	7.36
336.201	7.52
336.668	7.86
337.134	7.48
337.6	6.75
338.067	7.09
338.533	7.92
338.999	7.85
339.465	7.43
339.931	7.35
340.398	7.91
340.864	7.77
341.33	8.02
341.796	8.06
342.262	7.84
342.728	7.45
343.194	7.4
343.66	8.18
344.126	8.24
344.592	7.59
345.057	8.26
345.523	7.55
345.989	8.04
346.455	7.58
346.921	8.98
347.386	8.31
347.852	8.59
348.318	8.45
348.783	7.94
349.249	8.22
349.714	8.32
350.18	8.05
350.645	6.73
351.111	8.43
351.576	8.85
352.042	8.07
352.507	7.58
352.973	7.41
353.438	6.91
353.903	8.42
354.369	8.06
354.834	9.09
355.299	8.89
355.764	7.59
356.229	8.47
356.695	8.15
357.16	8.65
357.625	8.04
358.09	8.66
358.555	8.92
359.02	7.68
359.485	8.04
359.95	9.04
360.415	8.03
360.879	8.52
361.344	7.54
361.809	8.11
362.274	8.23
362.739	7.83
363.203	8.56
363.668	8.44
364.133	8.4
364.597	8.08
365.062	7.71
365.527	7.56
365.991	7.95
366.456	8.47
366.92	7.55
367.385	8.66
367.849	7.86
368.314	7.41
368.778	7.7
369.242	7.02
369.707	8.42
370.171	8.27
370.635	8.16
371.1	8.26
371.564	7.54
372.028	8.39
372.492	8.47
372.956	7.65
373.42	8.44
373.884	8.52
374.348	9.37
374.812	7.95
375.276	8.79
375.74	7.88
376.204	9.15
376.668	8.23
377.132	7.97
377.596	7.88
378.06	7.77
378.524	8.17
378.987	7.4
379.451	7.4
379.915	8.21
380.378	8.54
380.842	8.26
381.306	8.42
381.769	8.17
382.233	8.9
382.696	7.93
383.16	8.19
383.623	7.69
384.087	7.88
384.55	8.77
385.014	8.27
385.477	7.93
385.94	8.51
386.404	7.91
386.867	8.39
387.33	8.47
387.793	7.63
388.256	7.69
388.72	8.79
389.183	7.3
389.646	7.94
390.109	7.55
390.572	7.68
391.035	8.03
391.498	7.94
391.961	7.44
392.424	7.6
392.887	8.02
393.35	7.86
393.812	7.76
394.275	7.39
394.738	7.01
395.201	7.94
395.664	7.59
396.126	7.13
396.589	7.54
397.052	6.92
397.514	6.71
397.977	7.14
398.439	7.23
398.902	7.23
399.364	6.37
399.827	7
400.289	7.06
400.752	6.85
401.214	7.26
401.676	7.2
402.139	6.19
402.601	6.81
403.063	6.79
403.525	6.37
403.988	6.83
404.45	6.02
404.912	6.62
405.374	6.29
405.836	6.93
406.298	7.17
406.76	6.92
407.222	6.6
407.684	5.28
408.146	6.47
408.608	6.93
409.07	6.41
409.532	5.74
409.994	6.18
410.456	5.97
410.917	6.42
411.379	6.62
411.841	6.28
412.303	6.53
412.764	5.52
413.226	6.7
413.687	6.41
414.149	6.34
414.611	5.88
415.072	5.98
415.534	6.39
415.995	6.08
416.457	6.2
416.918	6.53
417.379	6.29
417.841	6.42
418.302	6.27
418.763	6.67
419.225	7.01
419.686	5.68
420.147	6.72
420.608	6.37
421.069	6.29
421.53	7.22
421.991	6.85
422.453	6.25
422.914	6.89
423.375	7.26
423.836	6.95
424.297	6.91
424.757	6.6
425.218	7.29
425.679	7.26
426.14	7.36
426.601	7.12
427.062	8.01
427.522	7.03
427.983	6.59
428.444	8.95
428.904	7.45
429.365	6.85
429.826	8.16
430.286	8.62
430.747	8.62
431.207	7.71
431.668	8.13
432.128	9.01
432.589	8.08
433.049	6.59
433.509	8.88
433.97	7.45
434.43	8.85
434.89	8.79
435.351	9.35
435.811	9.49
436.271	8.33
436.731	9.06
437.191	9.41
437.651	7.76
438.112	9.3
438.572	6.76
439.032	8.66
439.492	10.33
439.952	9.96
440.412	8.5
440.871	9.63
441.331	9.21
441.791	9.24
442.251	10.71
442.711	9.29
443.171	9.9
443.63	9.35
444.09	9.67
444.55	9.74
445.009	9.69
445.469	9.87
445.929	9.32
446.388	10.96
446.848	9.1
447.307	10.08
447.767	9.47
448.226	9.42
448.686	9.28
449.145	9.79
449.604	9.64
450.064	9.84
450.523	9.68
450.982	9.83
451.442	8.84
451.901	10.44
452.36	9.16
452.819	8.69
453.278	10.02
453.737	9.74
454.197	9.33
454.656	8.86
455.115	9.45
455.574	9.25
456.033	9.87
456.492	10.75
456.95	10.99
457.409	10.05
457.868	10.96
458.327	9.54
458.786	9.52
459.245	10.03
459.703	9.45
460.162	10.49
460.621	10.09
461.079	9.78
461.538	10.12
461.997	10.35
462.455	9.94
462.914	11.46
463.372	11.12
463.831	10.74
464.289	10.06
464.748	10.63
465.206	10.65
465.664	10.58
466.123	10.62
466.581	9.23
467.039	9.59
467.497	10.04
467.956	9.94
468.414	9.69
468.872	10.38
469.33	9.84
469.788	10.96
470.246	9.72
470.704	11.76
471.162	9.12
471.62	10.9
472.078	10.88
472.536	10.89
472.994	10.21
473.452	10.41
473.91	9.69
474.368	11
474.826	11.69
475.283	9.85
475.741	10.26
476.199	10.49
476.656	11.41
477.114	9.75
477.572	11.13
478.029	11.22
478.487	10.94
478.944	10.3
479.402	10.84
479.859	10.82
480.317	10.17
480.774	11.36
481.232	9.34
481.689	9.25
482.146	13.19
482.604	11.24
483.061	10.95
483.518	11.13
483.975	11.09
484.433	9.25
484.89	10.46
485.347	10.3
485.804	11.26
486.261	10.63
486.718	11.94
487.175	11.36
487.632	11.31
488.089	10.34
488.546	12.18
489.003	11.93
489.46	11.85
489.917	11.76
490.373	13.01
490.83	10.51
491.287	11.56
491.744	11.72
492.2	11.35
492.657	12.07
493.114	12.63
493.57	10.55
494.027	13.7
494.484	11.25
494.94	13.14
495.397	12.42
495.853	11.79
496.31	11.88
496.766	12.15
497.222	12.8
497.679	11.6
498.135	12.02
498.591	11.5
499.048	11.18
499.504	10.88
499.96	11.53
500.416	14.67
500.872	13.6
501.329	13.39
501.785	11.55
502.241	12.59
502.697	13.36
503.153	11.92
503.609	11.94
504.065	13.85
504.521	13.18
504.977	12.41
505.432	11.81
505.888	14.31
506.344	12.59
506.8	13.6
507.256	13.13
507.711	13.69
508.167	12.51
508.623	13.83
509.078	13.6
509.534	12.84
509.99	14.43
510.445	12.12
510.901	13.58
511.356	15.43
511.812	15.36
512.267	14.61
512.722	13.96
513.178	14.59
513.633	13.76
514.089	13.94
514.544	14.51
514.999	13.54
515.454	13.54
515.91	15.2
516.365	13.31
516.82	14.01
517.275	14.01
517.73	14.92
518.185	15
518.64	14.99
519.095	14.46
519.55	13.97
520.005	13.67
520.46	14.41
520.915	13.72
521.37	14.43
521.825	14.43
522.28	13.29
522.734	14.01
523.189	14.19
523.644	13.96
524.099	14.38
524.553	14.45
525.008	14.77
525.462	15.19
525.917	14.07
526.372	14.37
526.826	14.68
527.281	12.46
527.735	14.96
528.19	13.88
528.644	13.85
529.098	14.79
529.553	14.62
530.007	14.32
530.461	13.29
530.916	14.9
531.37	14.2
531.824	14.31
532.278	14.64
532.732	13.5
533.186	15.11
533.641	13.41
534.095	14.86
534.549	15.82
535.003	14.43
535.457	14.71
535.911	14.55
536.365	13.75
536.818	14.48
537.272	13.86
537.726	14.33
538.18	14.03
538.634	13.51
539.087	12.5
539.541	14.33
539.995	13.24
540.449	13.96
540.902	14.13
541.356	15.03
541.809	12.94
542.263	13.13
542.716	13.41
543.17	12.95
543.623	13.37
544.077	14.54
544.53	13.05
544.984	14.53
545.437	14.4
545.89	14.54
546.344	14.24
546.797	13.85
547.25	13.99
547.703	13.72
548.157	14.82
548.61	14.05
549.063	16.07
549.516	13.49
549.969	14.45
550.422	15.21
550.875	13.93
551.328	13.86
551.781	13.69
552.234	14.31
552.687	14.12
553.14	15.32
553.592	15.34
554.045	15.08
554.498	15.28
554.951	16.52
555.404	15.03
555.856	14.46
556.309	15.77
556.762	14.26
557.214	16.36
557.667	15.44
558.119	15.58
558.572	14.68
559.024	15.4
559.477	16.68
559.929	15.66
560.382	15.82
560.834	15.44
561.286	14.88
561.739	14.46
562.191	14.98
562.643	15.93
563.095	15.95
563.548	14.79
564	15.88
564.452	15.7
564.904	15.12
565.356	15.95
565.808	15.22
566.26	15.77
566.712	15.14
567.164	15.38
567.616	15.15
568.068	15.81
568.52	15.4
568.972	16
569.424	15.14
569.876	15.42
570.327	14.35
570.779	15.13
571.231	14.73
571.682	15.2
572.134	14.32
572.586	14.66
573.037	14.37
573.489	15.22
573.941	15.41
574.392	14.66
574.844	14.72
575.295	15.28
575.746	15.86
576.198	14.57
576.649	15.25
577.101	15.65
577.552	15.2
578.003	15
578.454	15.08
578.906	15.63
579.357	14.87
579.808	15.04
580.259	14.93
580.71	15.87
581.161	15.98
581.612	15.12
582.064	15.79
582.515	15.12
582.965	16.41
583.416	16.43
583.867	15.45
584.318	15.53
584.769	17.01
585.22	16.59
585.671	15.68
586.122	16.08
586.572	15.87
587.023	17.12
587.474	16.6
587.924	17.47
588.375	17.33
588.826	16.59
589.276	17.83
589.727	16.81
590.177	17.1
590.628	17.49
591.078	16.71
591.529	18.31
591.979	17.75
592.429	18.05
592.88	18.02
593.33	19.14
593.78	18.21
594.231	18.36
594.681	18.01
595.131	17.54
595.581	18.07
596.031	17.95
596.481	17.53
596.932	18.39
597.382	18.42
597.832	18.1
598.282	19.06
598.732	18.64
599.182	18.07
599.632	18.74
600.081	17.87
600.531	18.01
600.981	18.22
601.431	17.32
601.881	18.71
602.33	18.87
602.78	18.39
603.23	18.15
603.679	17.66
604.129	18.28
604.579	18.75
605.028	17.8
605.478	18.07
605.927	18.6
606.377	18.82
606.826	18.76
607.276	18.46
607.725	19
608.175	19.31
608.624	19.18
609.073	19.04
609.522	19.01
609.972	18.39
610.421	19.06
610.87	18.58
611.319	18.51
611.768	18.82
612.218	19.16
612.667	18.66
613.116	19.5
613.565	18.92
614.014	19.1
614.463	19.26
614.912	18.51
615.361	19.55
615.81	19.48
616.258	19.24
616.707	19.82
617.156	19.26
617.605	19.39
618.054	18.84
618.502	19.39
618.951	18.92
619.4	19.38
619.848	18.9
620.297	19.14
620.745	19.1
621.194	19.5
621.642	18.79
622.091	19.11
622.539	18.79
622.988	18.32
623.436	19.78
623.885	19.4
624.333	18.3
624.781	19.83
625.23	19
625.678	18.73
626.126	19.58
626.574	19.52
627.022	18.95
627.471	19.79
627.919	19.69
628.367	18.92
628.815	20.32
629.263	19.14
629.711	18.95
630.159	19.83
630.607	19.52
631.055	19.85
631.503	19.76
631.95	19.96
632.398	19.51
632.846	18.98
633.294	19.38
633.742	19.78
634.189	19.91
634.637	19.95
635.085	19.21
635.532	19.79
635.98	19.94
636.427	19.74
636.875	19.72
637.323	19.79
637.77	19.42
638.217	19.88
638.665	19.21
639.112	20.4
639.56	19.44
640.007	20.52
640.454	19.35
640.902	20
641.349	20.93
641.796	20.46
642.243	19.57
642.69	19.35
643.138	19.88
643.585	20.37
644.032	19.8
644.479	19.26
644.926	19.66
645.373	19.76
645.82	20.46
646.267	20.33
646.714	19.89
647.161	20.2
647.607	20.32
648.054	20.44
648.501	19.46
648.948	20.58
649.395	20.27
649.841	20.09
650.288	20.12
650.735	20.23
651.181	19.76
651.628	20.39
652.075	19.26
652.521	20.1
652.968	20.67
653.414	20.07
653.861	20.39
654.307	21.05
654.753	19.5
655.2	20.92
655.646	20.58
656.092	20.42
656.539	20.97
656.985	19.92
657.431	20.44
657.877	20.28
658.324	20.45
658.77	20.75
659.216	21.03
659.662	20.43
660.108	20.68
660.554	21.1
661	19.99
661.446	20.58
661.892	21.01
662.338	20.33
662.784	21.48
663.23	20.45
663.675	20.26
664.121	20.81
664.567	20.84
665.013	21.15
665.458	21.04
665.904	20.77
666.35	20.1
666.795	21.05
667.241	20.95
667.687	21.1
668.132	21.06
668.578	21.53
669.023	20.57
669.469	20.84
669.914	21.11
670.359	20.34
670.805	21.15
671.25	20.68
671.695	21.13
672.141	20.85
672.586	20.4
673.031	21.79
673.476	21.36
673.922	21.15
674.367	20.49
674.812	21.47
675.257	20.78
675.702	20.62
676.147	20.65
676.592	20.98
677.037	20.85
677.482	20.84
677.927	20.96
678.372	20.95
678.817	21
679.261	20.87
679.706	21.21
680.151	21.26
680.596	21.48
681.04	21.28
681.485	21.41
681.93	20.96
682.374	21.19
682.819	21.51
683.264	21.01
683.708	20.71
684.153	21.47
684.597	20.85
685.042	21.15
685.486	20.65
685.93	21.08
686.375	21.44
686.819	21.56
687.263	20.98
687.708	21.15
688.152	20.87
688.596	21.7
689.04	21.59
689.485	21.11
689.929	21.42
690.373	21.74
690.817	21.37
691.261	21.39
691.705	21.29
692.149	21.51
692.593	21.74
693.037	21.33
693.481	21.4
693.925	21.64
694.369	22.04
694.812	21.36
695.256	21.01
695.7	21.3
696.144	21.9
696.587	21.52
697.031	21.19
697.475	21.47
697.918	21.51
698.362	21.32
698.806	21.69
699.249	21.73
699.693	21.2
700.136	21.59
700.58	21.38
701.023	21.4
701.466	21.39
701.91	21.65
702.353	21.25
702.796	21.45
703.24	21.55
703.683	21.48
704.126	21.2
704.569	22
705.013	21.52
705.456	21.65
705.899	22.07
706.342	21.87
706.785	21.93
707.228	21.57
707.671	21.18
708.114	21.7
708.557	22.44
709	21.57
709.443	21.84
709.886	21.98
710.328	22.02
710.771	22.13
711.214	21.62
711.657	21.71
712.099	21.74
712.542	21.34
712.985	21.88
713.427	21.7
713.87	21.29
714.313	22.03
714.755	21.96
715.198	22.08
715.64	22.19
716.083	21.92
716.525	21.76
716.967	22
717.41	21.55
717.852	21.74
718.295	22.48
718.737	21.68
719.179	22.08
719.621	21.95
720.063	21.6
720.506	22.15
720.948	22.1
721.39	21.91
721.832	21.82
722.274	22.45
722.716	22.52
723.158	21.85
723.6	22.58
724.042	22.19
724.484	22.51
724.926	22.3
725.368	21.85
725.81	21.97
726.251	21.93
726.693	21.64
727.135	22.1
727.577	21.96
728.018	21.64
728.46	21.48
728.902	21.89
729.343	22.44
729.785	22.1
730.226	22.2
730.668	21.71
731.109	22.06
731.551	21.82
731.992	22.3
732.434	22.44
732.875	22.53
733.316	22
733.758	21.63
734.199	21.29
734.64	21.66
735.081	22.02
735.523	22.13
735.964	22.43
736.405	22.22
736.846	22.63
737.287	22.19
737.728	22.08
738.169	21.83
738.61	21.98
739.051	22.16
739.492	22.27
739.933	22.96
740.374	22.27
740.815	22.48
741.256	22.11
741.696	21.95
742.137	22.68
742.578	22.3
743.019	22.01
743.459	22.45
743.9	22.12
744.341	22.42
744.781	21.93
745.222	22.19
745.662	22.23
746.103	22.92
746.543	22.54
746.984	22.41
747.424	22.33
747.865	22.45
748.305	22.19
748.745	22.2
749.186	22.64
749.626	22
750.066	22.06
750.506	22.49
750.947	22.04
751.387	22.44
751.827	22.25
752.267	22.86
752.707	22.2
753.147	21.98
753.587	22.41
754.027	22.05
754.467	22.31
754.907	22.18
755.347	22.33
755.787	22.85
756.227	22.54
756.667	22.47
757.107	22.9
757.546	22.53
757.986	22.39
758.426	22.07
758.865	22.02
759.305	22.21
759.745	22.5
760.184	22.09
760.624	22.81
761.063	22.88
761.503	22.41
761.943	22.3
762.382	22.38
762.821	22.41
763.261	22.59
763.7	22.61
764.14	22.34
764.579	22.65
765.018	22.5
765.457	22.75
765.897	22.38
766.336	22
766.775	22.35
767.214	22.73
767.653	21.95
768.092	22.83
768.531	22.79
768.97	22.35
769.409	22.38
769.848	22.41
770.287	22.02
770.726	22.65
771.165	22.69
771.604	22.61
772.043	22.92
772.482	22.81
772.92	22.98
773.359	22.65
773.798	22.61
774.237	22.55
774.675	22.49
775.114	22.67
775.553	22.47
775.991	22.56
776.43	22.77
776.868	22.61
777.307	23.2
777.745	22.94
778.184	22.84
778.622	23.11
779.06	22.37
779.499	22.49
779.937	22.75
780.375	22.65
780.814	23.35
781.252	22.39
781.69	22.51
782.128	22.72
782.566	22.65
783.004	22.73
783.443	22.63
783.881	22.44
784.319	23.61
784.757	22.92
785.195	22.99
785.633	23.2
786.071	22.81
786.508	22.6
786.946	22.21
787.384	22.47
787.822	23.19
788.26	22.27
788.697	23.09
789.135	22.89
789.573	23.21
790.011	22.87
790.448	22.89
790.886	23.16
791.323	22.3
791.761	22.98
792.198	22.95
792.636	22.97
793.073	22.38
793.511	23.22
793.948	23.1
794.386	23.11
794.823	22.92
795.26	23.39
795.698	22.94
796.135	23.1
796.572	22.62
797.009	23.18
797.446	22.93
797.884	23.05
798.321	22.86
798.758	22.62
799.195	22.73
799.632	23.02
800.069	22.78
800.506	22.89
800.943	23.04
801.38	22.8
801.817	23.22
802.254	22.54
802.69	23.04
803.127	23.35
803.564	22.87
804.001	23.14
804.438	23.43
804.874	23.08
805.311	22.87
805.748	23.21
806.184	23
806.621	23.14
807.057	22.98
807.494	23.05
807.93	22.87
808.367	22.9
808.803	23.16
809.24	23.03
809.676	23.21
810.112	22.68
810.549	23.15
810.985	22.97
811.421	23.11
811.857	22.77
812.294	23.92
812.73	23.32
813.166	23.37
813.602	23.11
814.038	23.38
814.474	22.99
814.91	23.34
815.346	23.3
815.782	23.38
816.218	23.02
816.654	23.63
817.09	22.85
817.526	23.09
817.962	23.02
818.398	23.21
818.833	23.11
819.269	23.1
819.705	23.08
820.141	23.29
820.576	23.4
821.012	23.73
