Data from JCR0014_SupralabialBlack_Reflection_00003.txt Node
Date: Thu Jul 23 15:03:02 ACST 2020
User: Stacey Dix
Spectrometer: MAYP113282
Scans to average: 1
Trigger mode: 0
Integration Time (sec): 1.000000E-1
Electric dark correction enabled: true
Boxcar width: 0
XAxis mode: Wavelengths
Number of Pixels in Spectrum: 2068
>>>>>Begin Spectral Data<<<<<
198.791	-1700
199.266	1300
199.74	-100
200.215	14.29
200.69	44.58
201.164	14.67
201.639	57.75
202.114	50.35
202.588	3.7
203.063	24.81
203.537	9.68
204.012	19.1
204.486	33.81
204.961	56.32
205.435	10.57
205.909	7.37
206.384	33.33
206.858	13.4
207.332	6.09
207.807	0.99
208.281	41.61
208.755	26.13
209.229	2.29
209.703	13.51
210.177	24.79
210.651	43.07
211.126	-4.83
211.6	21.17
212.074	37.93
212.548	48.03
213.021	17.73
213.495	23.58
213.969	-2.52
214.443	-8.53
214.917	33.33
215.391	32.54
215.864	26.32
216.338	28.96
216.812	31.74
217.286	9.45
217.759	29.41
218.233	14.69
218.706	20.23
219.18	18.45
219.654	29.65
220.127	20.17
220.6	26.27
221.074	22.61
221.547	8.23
222.021	16.02
222.494	21.59
222.967	19.86
223.441	16.28
223.914	8.47
224.387	26.35
224.86	22.74
225.334	23.92
225.807	11.11
226.28	12.91
226.753	22.3
227.226	20.76
227.699	7.23
228.172	16.47
228.645	1.12
229.118	8.23
229.591	11.88
230.064	11.26
230.537	17.1
231.01	12.05
231.482	11.89
231.955	-4.72
232.428	9.45
232.901	13.56
233.373	14.29
233.846	9.81
234.319	7.92
234.791	12.9
235.264	12.31
235.736	7.06
236.209	9.78
236.681	5.61
237.154	9.75
237.626	12.61
238.099	9.96
238.571	8.04
239.044	11.3
239.516	9.62
239.988	9.6
240.46	11.29
240.933	12.17
241.405	9.74
241.877	8.86
242.349	7.51
242.821	8.63
243.293	11.27
243.765	7.36
244.237	9.8
244.71	9.27
245.181	12.87
245.653	10.72
246.125	8.02
246.597	9.73
247.069	12.49
247.541	10.05
248.013	8.47
248.485	5.2
248.956	5.98
249.428	9.53
249.9	9.84
250.371	8.29
250.843	8.67
251.315	7.78
251.786	6.2
252.258	7.21
252.729	8.46
253.201	9.5
253.672	8.49
254.144	5.91
254.615	9.63
255.086	6.46
255.558	8.12
256.029	7.05
256.5	7.62
256.972	8.21
257.443	8.71
257.914	7.39
258.385	7.51
258.856	4.93
259.327	8.28
259.799	7.06
260.27	4.58
260.741	7.05
261.212	8.52
261.683	6.49
262.154	8.29
262.624	7.98
263.095	6.19
263.566	5.36
264.037	6.2
264.508	9.15
264.979	4.08
265.449	7.73
265.92	6.47
266.391	7.85
266.861	7.54
267.332	5.61
267.803	4.27
268.273	7.12
268.744	5.82
269.214	7.57
269.685	7.86
270.155	4.92
270.626	4.36
271.096	6.59
271.566	6.03
272.037	5.51
272.507	9.71
272.977	6.76
273.448	7.77
273.918	6.94
274.388	5.34
274.858	8.1
275.328	7.83
275.798	7.61
276.268	5.61
276.738	9.9
277.208	8.47
277.678	8.68
278.148	4.46
278.618	7.12
279.088	6.13
279.558	7.2
280.028	4.64
280.498	6.8
280.968	7.23
281.437	5.81
281.907	6.55
282.377	8.95
282.847	6.97
283.316	5.4
283.786	4.22
284.255	6.43
284.725	7.32
285.194	6.48
285.664	6.13
286.133	5
286.603	5.96
287.072	7
287.542	5.88
288.011	6.84
288.48	6.43
288.95	5.8
289.419	6.22
289.888	6.27
290.357	7.61
290.827	5.28
291.296	5.57
291.765	6.43
292.234	5.16
292.703	8.27
293.172	8.22
293.641	5.31
294.11	4.13
294.579	7.51
295.048	4.95
295.517	6.31
295.986	6.23
296.455	5.99
296.923	7.52
297.392	7.01
297.861	5.48
298.33	4.68
298.798	6.06
299.267	8.29
299.736	5.89
300.204	7.9
300.673	6.49
301.141	6.46
301.61	8.11
302.079	7.4
302.547	8.52
303.015	7.66
303.484	6.56
303.952	6.28
304.421	6.5
304.889	5.85
305.357	8.17
305.825	6.22
306.294	6.43
306.762	6.57
307.23	7.66
307.698	7.64
308.166	7.13
308.634	7.37
309.103	7.02
309.571	6.21
310.039	8.67
310.507	6.89
310.975	5.18
311.442	7.22
311.91	8.16
312.378	7.02
312.846	7.69
313.314	9.03
313.782	9.07
314.249	6.06
314.717	7.3
315.185	8.48
315.652	7.45
316.12	7.7
316.588	8.15
317.055	8.34
317.523	8.56
317.99	9.7
318.458	8.32
318.925	9.59
319.393	6.93
319.86	7.07
320.328	8.03
320.795	8.12
321.262	9.59
321.73	5.81
322.197	8.15
322.664	9.85
323.131	9
323.598	9.82
324.066	9.51
324.533	9.45
325	11.96
325.467	9.71
325.934	10.05
326.401	12.38
326.868	12.14
327.335	12.68
327.802	11.63
328.269	12.18
328.735	14.6
329.202	14.01
329.669	17.44
330.136	14.52
330.603	14.46
331.069	17.21
331.536	17
332.003	17.71
332.469	19.22
332.936	18.56
333.402	18.44
333.869	20.22
334.336	20.27
334.802	19.27
335.268	20.99
335.735	21.42
336.201	22.51
336.668	23.29
337.134	23.72
337.6	22.7
338.067	25.48
338.533	25.36
338.999	23.89
339.465	22.88
339.931	24.26
340.398	25.59
340.864	24.13
341.33	23.79
341.796	23.45
342.262	23.84
342.728	24.24
343.194	23.77
343.66	23.3
344.126	22.57
344.592	23.49
345.057	24.66
345.523	24.62
345.989	23.42
346.455	25.39
346.921	24.12
347.386	24.64
347.852	24.3
348.318	25.11
348.783	23.73
349.249	22.47
349.714	22.09
350.18	23.59
350.645	24.99
351.111	23.7
351.576	23.07
352.042	24.04
352.507	21.96
352.973	22.92
353.438	22.21
353.903	24.28
354.369	23.26
354.834	22.18
355.299	22.77
355.764	23.46
356.229	21.78
356.695	22.9
357.16	20.89
357.625	22.63
358.09	22.65
358.555	22.54
359.02	23.08
359.485	23.57
359.95	21.68
360.415	23.18
360.879	22.77
361.344	23.55
361.809	22.35
362.274	22.26
362.739	20.4
363.203	22.65
363.668	22.56
364.133	22.92
364.597	23.19
365.062	23.32
365.527	21.49
365.991	21.29
366.456	21.81
366.92	20.88
367.385	20.01
367.849	21.74
368.314	21.92
368.778	20.42
369.242	23
369.707	22.45
370.171	22.53
370.635	21.51
371.1	22.13
371.564	21.17
372.028	20.95
372.492	21.68
372.956	19.37
373.42	20.27
373.884	21.13
374.348	21.47
374.812	21.23
375.276	20.14
375.74	22.68
376.204	21.02
376.668	20.8
377.132	22.23
377.596	24.38
378.06	21.2
378.524	19.91
378.987	20.63
379.451	21.55
379.915	19.91
380.378	21.59
380.842	20.55
381.306	20.7
381.769	19.31
382.233	18.92
382.696	21.88
383.16	19.2
383.623	21.35
384.087	20.23
384.55	21.04
385.014	20.12
385.477	19.3
385.94	18
386.404	22.09
386.867	21.71
387.33	20.55
387.793	21.12
388.256	20.06
388.72	18.41
389.183	20.09
389.646	20.44
390.109	19.53
390.572	21.86
391.035	20.02
391.498	19.83
391.961	18.42
392.424	19.97
392.887	19.69
393.35	21.2
393.812	20.84
394.275	19.05
394.738	20.09
395.201	21.08
395.664	18.7
396.126	18.38
396.589	19.74
397.052	20.03
397.514	17.76
397.977	18.31
398.439	18.73
398.902	18.89
399.364	18.93
399.827	18.44
400.289	20.31
400.752	17.41
401.214	17.69
401.676	17.74
402.139	16.9
402.601	17.14
403.063	17.7
403.525	17.57
403.988	18.56
404.45	18.16
404.912	17.18
405.374	18.72
405.836	17.22
406.298	18.5
406.76	18.55
407.222	18.42
407.684	18.28
408.146	17.13
408.608	16.09
409.07	18.19
409.532	17.73
409.994	15.73
410.456	16.58
410.917	17.04
411.379	17.39
411.841	17.06
412.303	17.02
412.764	15.86
413.226	16.38
413.687	15.09
414.149	16.09
414.611	16.26
415.072	16.2
415.534	17.31
415.995	17.31
416.457	17.75
416.918	16.35
417.379	16.13
417.841	17.63
418.302	17.55
418.763	17.04
419.225	15.39
419.686	15.63
420.147	16.18
420.608	16.43
421.069	17.34
421.53	17.03
421.991	17.2
422.453	15.77
422.914	18.6
423.375	17.41
423.836	18.02
424.297	16.79
424.757	18.02
425.218	15.94
425.679	17.35
426.14	18
426.601	16.59
427.062	17.25
427.522	18.81
427.983	17.72
428.444	17.21
428.904	19.54
429.365	21.12
429.826	18.33
430.286	17.11
430.747	17.07
431.207	17.72
431.668	19.14
432.128	19.45
432.589	21.11
433.049	16.35
433.509	17.93
433.97	19.6
434.43	19.47
434.89	17.89
435.351	17.05
435.811	19.41
436.271	18.77
436.731	16.89
437.191	17.84
437.651	19.76
438.112	18.14
438.572	21.29
439.032	19.64
439.492	19.08
439.952	18.54
440.412	18.33
440.871	16.89
441.331	17.35
441.791	19.31
442.251	17.85
442.711	18.67
443.171	16.39
443.63	20.93
444.09	20.97
444.55	18.19
445.009	18.99
445.469	14.93
445.929	17.74
446.388	20.55
446.848	18.45
447.307	18.08
447.767	18.67
448.226	17.62
448.686	18.93
449.145	16.85
449.604	18.89
450.064	21.21
450.523	19.14
450.982	21.74
451.442	16.63
451.901	17.09
452.36	17.62
452.819	18.9
453.278	18.68
453.737	18.89
454.197	19.84
454.656	19.84
455.115	21.06
455.574	17.71
456.033	18.75
456.492	18.93
456.95	18.03
457.409	20.11
457.868	20.24
458.327	20.09
458.786	19.01
459.245	16.89
459.703	18.68
460.162	19.59
460.621	20.17
461.079	19.27
461.538	18.07
461.997	17.79
462.455	18
462.914	17.96
463.372	17.5
463.831	18.52
464.289	18.57
464.748	18.33
465.206	18.86
465.664	21.04
466.123	21.4
466.581	15.4
467.039	18.8
467.497	22.08
467.956	21.14
468.414	19.24
468.872	18.29
469.33	18.66
469.788	19.22
470.246	19.33
470.704	19.14
471.162	20.33
471.62	16.95
472.078	17.56
472.536	20.09
472.994	16.75
473.452	19.55
473.91	18.66
474.368	20.49
474.826	17.88
475.283	20.28
475.741	16.22
476.199	17.25
476.656	20.7
477.114	18.38
477.572	20.95
478.029	18.65
478.487	17.16
478.944	17.65
479.402	18.2
479.859	19.24
480.317	18.79
480.774	18.37
481.232	18.5
481.689	21.27
482.146	17.31
482.604	20.25
483.061	19.67
483.518	21.76
483.975	20.75
484.433	17.18
484.89	17.54
485.347	21.52
485.804	19.6
486.261	20.94
486.718	17.87
487.175	16.92
487.632	18.66
488.089	22.72
488.546	19.38
489.003	18.03
489.46	21.86
489.917	19.22
490.373	17.62
490.83	20.16
491.287	19.44
491.744	18.93
492.2	20.62
492.657	20.65
493.114	19.56
493.57	19.85
494.027	18.67
494.484	20.54
494.94	16.78
495.397	18.26
495.853	22.52
496.31	19.69
496.766	21.45
497.222	20.8
497.679	18.43
498.135	23.09
498.591	17
499.048	21.29
499.504	18.01
499.96	22.07
500.416	19.65
500.872	18.89
501.329	20.59
501.785	20.9
502.241	18.78
502.697	20.57
503.153	20.77
503.609	18.93
504.065	23.26
504.521	20.67
504.977	21.91
505.432	23.73
505.888	18.93
506.344	24.3
506.8	20.28
507.256	23.34
507.711	21.32
508.167	20.54
508.623	20.67
509.078	23.2
509.534	22.45
509.99	22.55
510.445	23.67
510.901	20.45
511.356	21.44
511.812	21.53
512.267	21.35
512.722	22.03
513.178	22.35
513.633	21.83
514.089	20.28
514.544	22.54
514.999	22.2
515.454	22.37
515.91	21.08
516.365	22.88
516.82	23.7
517.275	21.6
517.73	22.97
518.185	22.72
518.64	22.16
519.095	21.56
519.55	20.78
520.005	22.36
520.46	23.24
520.915	22.23
521.37	22.57
521.825	22.04
522.28	21.26
522.734	21.98
523.189	20.53
523.644	22.61
524.099	21.71
524.553	23.07
525.008	21.62
525.462	22.13
525.917	23.02
526.372	22.17
526.826	25.56
527.281	24.04
527.735	21.71
528.19	23.16
528.644	23.1
529.098	21.49
529.553	23.07
530.007	22.03
530.461	21.88
530.916	24.37
531.37	22.61
531.824	23.74
532.278	22.57
532.732	23.21
533.186	23.33
533.641	22.29
534.095	22.14
534.549	21.16
535.003	21.72
535.457	23.45
535.911	21.47
536.365	24.27
536.818	23.79
537.272	24.74
537.726	22.94
538.18	20.84
538.634	24.8
539.087	21.43
539.541	23.51
539.995	24.3
540.449	25.95
540.902	22.44
541.356	23.2
541.809	25.82
542.263	22.4
542.716	24.35
543.17	23.55
543.623	26.12
544.077	24.36
544.53	23.85
544.984	22.09
545.437	24.12
545.89	24.34
546.344	24.99
546.797	22.45
547.25	24.56
547.703	24.73
548.157	24.91
548.61	22.38
549.063	22.93
549.516	23.96
549.969	24.79
550.422	22.49
550.875	23.27
551.328	24.92
551.781	23.52
552.234	24.04
552.687	24.44
553.14	22.69
553.592	24.43
554.045	23.35
554.498	23.82
554.951	24.51
555.404	24.14
555.856	24.21
556.309	23.46
556.762	25.99
557.214	26.25
557.667	26.3
558.119	27.48
558.572	25.73
559.024	27.68
559.477	25.54
559.929	25.48
560.382	24.67
560.834	24.95
561.286	22.01
561.739	27.62
562.191	23.84
562.643	25.29
563.095	27.44
563.548	24.69
564	25.05
564.452	26.06
564.904	27.24
565.356	26.66
565.808	26.93
566.26	27.13
566.712	26.62
567.164	27.01
567.616	24.51
568.068	26.16
568.52	24.89
568.972	25.07
569.424	26.91
569.876	25.32
570.327	25.47
570.779	26.25
571.231	24.24
571.682	25.91
572.134	25.12
572.586	26.83
573.037	26
573.489	26.31
573.941	26.07
574.392	26.97
574.844	26.25
575.295	27.32
575.746	24.12
576.198	25.5
576.649	27.78
577.101	27.4
577.552	26.56
578.003	26.67
578.454	25.71
578.906	26.67
579.357	25.84
579.808	25.88
580.259	26.26
580.71	25.75
581.161	26.78
581.612	26.5
582.064	26.22
582.515	26.75
582.965	25.93
583.416	26.21
583.867	28.6
584.318	26.35
584.769	28.4
585.22	26
585.671	26.61
586.122	27.16
586.572	28.87
587.023	26.51
587.474	28.34
587.924	27.3
588.375	27.77
588.826	26.33
589.276	27.11
589.727	26.41
590.177	26.81
590.628	28.51
591.078	29.18
591.529	27.56
591.979	29.3
592.429	27.83
592.88	26.49
593.33	30.15
593.78	27.35
594.231	27.29
594.681	27.26
595.131	29.34
595.581	29.76
596.031	27.14
596.481	28.13
596.932	27.14
597.382	28.88
597.832	28.6
598.282	27.69
598.732	26.94
599.182	28.62
599.632	28.39
600.081	28.57
600.531	29.21
600.981	29.48
601.431	28.49
601.881	27.72
602.33	29.17
602.78	28.26
603.23	28.31
603.679	29.43
604.129	27.47
604.579	27.83
605.028	28.27
605.478	27.16
605.927	29.06
606.377	25.51
606.826	28.47
607.276	28.63
607.725	28.24
608.175	27.72
608.624	27.69
609.073	27.72
609.522	27.3
609.972	27.26
610.421	28.63
610.87	28.52
611.319	29.01
611.768	28.82
612.218	29.51
612.667	27.91
613.116	28.31
613.565	28.38
614.014	27.9
614.463	29.09
614.912	29.29
615.361	28.37
615.81	30.21
616.258	29.03
616.707	29.83
617.156	30.52
617.605	29.54
618.054	29.1
618.502	29.13
618.951	28.34
619.4	29.8
619.848	29.41
620.297	29.33
620.745	28.99
621.194	28.29
621.642	30.15
622.091	29.52
622.539	29.22
622.988	29.41
623.436	28.18
623.885	28.19
624.333	28.3
624.781	28.98
625.23	30.51
625.678	28.84
626.126	28.9
626.574	28.66
627.022	29.12
627.471	28.61
627.919	29.89
628.367	29.03
628.815	29.62
629.263	29.78
629.711	30.17
630.159	28.61
630.607	28.78
631.055	30.14
631.503	30.27
631.95	29.85
632.398	29.69
632.846	29.03
633.294	30.24
633.742	29.67
634.189	28.44
634.637	30.89
635.085	30.04
635.532	28.39
635.98	29.11
636.427	29.92
636.875	31.36
637.323	29.41
637.77	28.45
638.217	29.08
638.665	29.8
639.112	29.38
639.56	29.31
640.007	30.63
640.454	29.18
640.902	30.56
641.349	30.04
641.796	29.18
642.243	30.11
642.69	29.81
643.138	29.81
643.585	30.89
644.032	29.19
644.479	28.84
644.926	28.94
645.373	30.46
645.82	30.96
646.267	30.65
646.714	29.86
647.161	29.65
647.607	30.01
648.054	30.52
648.501	30.43
648.948	30.23
649.395	30.25
649.841	29.49
650.288	31.34
650.735	30.82
651.181	29.49
651.628	30.01
652.075	28.61
652.521	29.81
652.968	29.22
653.414	31.08
653.861	30.44
654.307	31.12
654.753	30.14
655.2	30.16
655.646	30.25
656.092	29.67
656.539	30.26
656.985	30.16
657.431	29.69
657.877	30.33
658.324	30.97
658.77	30.32
659.216	29.84
659.662	30.14
660.108	30.32
660.554	30.42
661	29.86
661.446	28.96
661.892	30.89
662.338	30.29
662.784	30.23
663.23	30.16
663.675	29.19
664.121	30.8
664.567	30.31
665.013	30.76
665.458	31.39
665.904	30.82
666.35	31.3
666.795	30.26
667.241	31.5
667.687	29.93
668.132	29.7
668.578	30
669.023	30.71
669.469	31.98
669.914	30.76
670.359	29.73
670.805	30.23
671.25	30.97
671.695	31.02
672.141	30.28
672.586	31.87
673.031	30.11
673.476	30.28
673.922	31.21
674.367	30.35
674.812	30.23
675.257	29.95
675.702	31.04
676.147	31.46
676.592	30.86
677.037	30.03
677.482	30.34
677.927	32.4
678.372	32.63
678.817	30.32
679.261	30.69
679.706	31.4
680.151	30.73
680.596	31.18
681.04	30.52
681.485	31.09
681.93	32.49
682.374	31.84
682.819	30.49
683.264	30.47
683.708	31.77
684.153	31.17
684.597	31.92
685.042	31.04
685.486	30.16
685.93	31.73
686.375	31.02
686.819	30.92
687.263	31.07
687.708	31.38
688.152	31.6
688.596	32.57
689.04	31.46
689.485	31.58
689.929	31.63
690.373	31.95
690.817	31.06
691.261	31.5
691.705	30.83
692.149	31.66
692.593	31.63
693.037	31.1
693.481	32.74
693.925	30.98
694.369	31.29
694.812	31.33
695.256	32.96
695.7	31.59
696.144	32.33
696.587	29.79
697.031	32.17
697.475	30.21
697.918	31.65
698.362	31.11
698.806	31.42
699.249	30.88
699.693	31.27
700.136	30.92
700.58	31.54
701.023	31.07
701.466	32.23
701.91	32.33
702.353	30.93
702.796	30.77
703.24	31.42
703.683	31.54
704.126	30.88
704.569	31.38
705.013	31.13
705.456	31.16
705.899	31.26
706.342	31.87
706.785	31.74
707.228	32.32
707.671	30.63
708.114	31.02
708.557	32.1
709	30.91
709.443	30.35
709.886	31.12
710.328	31.2
710.771	32.9
711.214	32.11
711.657	31.99
712.099	31.21
712.542	32.02
712.985	31.3
713.427	32.82
713.87	32.54
714.313	31.55
714.755	32.64
715.198	31.81
715.64	31.72
716.083	31.43
716.525	32.06
716.967	31.75
717.41	32.36
717.852	32.11
718.295	30.53
718.737	32.06
719.179	32.37
719.621	31.12
720.063	31.56
720.506	31.88
720.948	32.84
721.39	31.74
721.832	31.47
722.274	32
722.716	31.15
723.158	31.85
723.6	30.5
724.042	32.2
724.484	31.79
724.926	32.18
725.368	31.88
725.81	31.99
726.251	32.03
726.693	32.36
727.135	32.1
727.577	31.97
728.018	31.66
728.46	32.77
728.902	31.67
729.343	30.97
729.785	32.65
730.226	32.28
730.668	32
731.109	31.3
731.551	31.44
731.992	32
732.434	32.75
732.875	31.35
733.316	33.23
733.758	31.91
734.199	31.15
734.64	32.07
735.081	33.2
735.523	31.91
735.964	32.78
736.405	32.84
736.846	32.4
737.287	31.96
737.728	32.23
738.169	31.85
738.61	32.3
739.051	32.75
739.492	33.23
739.933	32.49
740.374	31.93
740.815	31.72
741.256	31.39
741.696	32.93
742.137	32.81
742.578	32.75
743.019	31.66
743.459	32.89
743.9	33.4
744.341	32.17
744.781	31.8
745.222	33.11
745.662	31.74
746.103	32.41
746.543	32.23
746.984	33.02
747.424	32.9
747.865	32.88
748.305	33.56
748.745	31.94
749.186	31.77
749.626	32.53
750.066	33.22
750.506	33.1
750.947	32.8
751.387	33.03
751.827	33.02
752.267	32.82
752.707	32.64
753.147	32.73
753.587	33.46
754.027	32.39
754.467	33.77
754.907	32.78
755.347	32.83
755.787	32.91
756.227	33.3
756.667	32.67
757.107	33.31
757.546	33.52
757.986	32.78
758.426	32.55
758.865	31.86
759.305	33.55
759.745	33.32
760.184	33.22
760.624	33.32
761.063	34.04
761.503	32.49
761.943	33.35
762.382	33.4
762.821	33.19
763.261	32.21
763.7	33.05
764.14	34.33
764.579	33.55
765.018	32.49
765.457	33.05
765.897	34.26
766.336	32.64
766.775	33.53
767.214	32.9
767.653	32.56
768.092	33.03
768.531	32.58
768.97	33.72
769.409	32.62
769.848	34.52
770.287	33.01
770.726	33.22
771.165	33.09
771.604	33.12
772.043	32.95
772.482	33.46
772.92	33.12
773.359	33.76
773.798	33.25
774.237	32.75
774.675	33.77
775.114	33.94
775.553	33.42
775.991	34.59
776.43	34.63
776.868	33.01
777.307	34.01
777.745	33.44
778.184	33.53
778.622	33.77
779.06	34.07
779.499	33.61
779.937	33.23
780.375	34.6
780.814	33.43
781.252	34.12
781.69	33.84
782.128	33.48
782.566	33.33
783.004	33.23
783.443	34.75
783.881	34.83
784.319	33.71
784.757	34.51
785.195	33.72
785.633	34.35
786.071	33.44
786.508	34.31
786.946	33.01
787.384	33.51
787.822	33.33
788.26	34.38
788.697	33.49
789.135	33.92
789.573	33.73
790.011	33.71
790.448	33.82
790.886	34.17
791.323	33.44
791.761	33.9
792.198	34.35
792.636	33.36
793.073	33.97
793.511	33.89
793.948	35
794.386	33.99
794.823	34.33
795.26	34.33
795.698	33.87
796.135	34.3
796.572	34.17
797.009	34.31
797.446	34.43
797.884	35.04
798.321	34.01
798.758	35.28
799.195	33.97
799.632	34.68
800.069	33.83
800.506	34.92
800.943	34.3
801.38	35.23
801.817	33.97
802.254	33.88
802.69	33.74
803.127	34.3
803.564	33.73
804.001	34.16
804.438	34.99
804.874	34.06
805.311	34.23
805.748	34.76
806.184	34.05
806.621	35.35
807.057	34.64
807.494	35.52
807.93	34.72
808.367	34.08
808.803	35.25
809.24	34.61
809.676	34.64
810.112	34.99
810.549	34.46
810.985	35.02
