Data from JCR0018_PreoccularBrown_Reflection_00001.txt Node
Date: Thu Jul 23 16:36:29 ACST 2020
User: Stacey Dix
Spectrometer: MAYP113282
Scans to average: 1
Trigger mode: 0
Integration Time (sec): 1.000000E-1
Electric dark correction enabled: true
Boxcar width: 0
XAxis mode: Wavelengths
Number of Pixels in Spectrum: 2068
>>>>>Begin Spectral Data<<<<<
198.791	-491.67
199.266	116.67
199.74	58.33
200.215	0
200.69	-7.99
201.164	5.87
201.639	7.88
202.114	11.76
202.588	24.91
203.063	22.29
203.537	10.15
204.012	19.8
204.486	15.32
204.961	11.06
205.435	1.12
205.909	26.75
206.384	7.64
206.858	2.02
207.332	-0.66
207.807	7.7
208.281	24
208.755	3.83
209.229	6.29
209.703	23.64
210.177	5.31
210.651	-0.58
211.126	26.05
211.6	6.69
212.074	25.11
212.548	12.83
213.021	11.22
213.495	18.56
213.969	0.11
214.443	3.46
214.917	13.97
215.391	9.98
215.864	10.56
216.338	15.56
216.812	10.9
217.286	4.1
217.759	18.06
218.233	7.48
218.706	9
219.18	9.42
219.654	8.58
220.127	6.63
220.6	1.59
221.074	6.61
221.547	11.74
222.021	0.99
222.494	4.26
222.967	3.97
223.441	1.16
223.914	12.33
224.387	4.77
224.86	5.3
225.334	3.55
225.807	4.9
226.28	4.91
226.753	2.59
227.226	5.51
227.699	5.47
228.172	3.12
228.645	5.02
229.118	3.4
229.591	2.99
230.064	2.24
230.537	1.91
231.01	4.85
231.482	1.29
231.955	3.96
232.428	4.08
232.901	0.36
233.373	3.21
233.846	1.85
234.319	3.33
234.791	2.49
235.264	1.42
235.736	2.02
236.209	2.47
236.681	2.4
237.154	1.77
237.626	3.38
238.099	2.45
238.571	3.74
239.044	2.67
239.516	2.06
239.988	1.69
240.46	3.58
240.933	1.47
241.405	1.21
241.877	1.18
242.349	2.24
242.821	3.59
243.293	2.17
243.765	3.05
244.237	3.05
244.71	2.23
245.181	1.94
245.653	3.05
246.125	2.71
246.597	1.8
247.069	2.17
247.541	2.18
248.013	2.72
248.485	2.39
248.956	3.81
249.428	1.27
249.9	2.33
250.371	2.94
250.843	2.01
251.315	1.26
251.786	2.55
252.258	1.65
252.729	2.42
253.201	2.11
253.672	1.36
254.144	1.03
254.615	1.39
255.086	1.67
255.558	1.53
256.029	1.68
256.5	1.57
256.972	1.08
257.443	1.58
257.914	1.52
258.385	1.38
258.856	2.34
259.327	2.04
259.799	1.42
260.27	1.5
260.741	1.62
261.212	1.56
261.683	1.04
262.154	1.72
262.624	1.32
263.095	1.38
263.566	1.82
264.037	1.67
264.508	0.78
264.979	1.7
265.449	0.73
265.92	1.76
266.391	1.81
266.861	1.3
267.332	1.83
267.803	1.36
268.273	2.08
268.744	1.14
269.214	1.41
269.685	1.06
270.155	1.21
270.626	1.85
271.096	1.72
271.566	1.65
272.037	2.35
272.507	1.14
272.977	0.66
273.448	0.73
273.918	1.58
274.388	1.27
274.858	1.3
275.328	1.33
275.798	1.02
276.268	1.48
276.738	1.23
277.208	1.13
277.678	1.71
278.148	1.53
278.618	0.51
279.088	1.79
279.558	1.12
280.028	1.09
280.498	0.91
280.968	1.76
281.437	1.29
281.907	1.37
282.377	0.83
282.847	0.92
283.316	1.76
283.786	0.65
284.255	0.68
284.725	1.35
285.194	1.76
285.664	1.24
286.133	1.44
286.603	1.67
287.072	0.58
287.542	0.92
288.011	1.28
288.48	0.64
288.95	1.72
289.419	1.4
289.888	0.99
290.357	0.99
290.827	1.22
291.296	1.28
291.765	1.4
292.234	1.9
292.703	1.08
293.172	1.27
293.641	0.84
294.11	1.46
294.579	1.18
295.048	1.3
295.517	1.52
295.986	1.48
296.455	0.96
296.923	0.76
297.392	1.2
297.861	0.56
298.33	0.9
298.798	1.16
299.267	1.76
299.736	0.71
300.204	0.57
300.673	0.92
301.141	1.15
301.61	1.48
302.079	0.57
302.547	2.19
303.015	1.75
303.484	1.15
303.952	1.99
304.421	0.9
304.889	1.32
305.357	1.57
305.825	0.6
306.294	1.59
306.762	2
307.23	0.61
307.698	2.1
308.166	0.86
308.634	1.12
309.103	1.21
309.571	1.08
310.039	1.42
310.507	1.17
310.975	1.42
311.442	1.54
311.91	1.31
312.378	0.88
312.846	1.2
313.314	1.46
313.782	1.37
314.249	1.85
314.717	1.12
315.185	1.18
315.652	0.61
316.12	1.03
316.588	2.02
317.055	1.22
317.523	1.05
317.99	0.72
318.458	1.68
318.925	0.76
319.393	1.18
319.86	1.19
320.328	1.91
320.795	0.78
321.262	1.75
321.73	1.25
322.197	1.28
322.664	1.25
323.131	1.68
323.598	1.5
324.066	1.48
324.533	1.46
325	1.83
325.467	2.04
325.934	1.55
326.401	1.89
326.868	1.71
327.335	2.04
327.802	1.81
328.269	2.23
328.735	2.37
329.202	2.4
329.669	2.49
330.136	2.88
330.603	2.6
331.069	2.46
331.536	3.24
332.003	2.76
332.469	3.27
332.936	3.06
333.402	3.36
333.869	3.42
334.336	3.15
334.802	3.86
335.268	3.53
335.735	3.73
336.201	3.03
336.668	4.1
337.134	2.75
337.6	2.94
338.067	4.05
338.533	2.79
338.999	3.8
339.465	3.33
339.931	3.75
340.398	3.24
340.864	3.18
341.33	3.15
341.796	3.54
342.262	4.08
342.728	3.39
343.194	3.5
343.66	3.91
344.126	4.62
344.592	3.06
345.057	4.33
345.523	3.87
345.989	3.92
346.455	3.33
346.921	4.32
347.386	3.81
347.852	2.95
348.318	3.73
348.783	3.26
349.249	3.65
349.714	3.58
350.18	3.87
350.645	3.61
351.111	3.62
351.576	4.27
352.042	3.5
352.507	3.69
352.973	3.15
353.438	3.02
353.903	3.78
354.369	3.07
354.834	3.83
355.299	3.97
355.764	3.22
356.229	3.49
356.695	3.32
357.16	3.7
357.625	3.17
358.09	3.69
358.555	4.8
359.02	3.77
359.485	3.4
359.95	3.07
360.415	4.07
360.879	3.55
361.344	4.08
361.809	3.62
362.274	3.64
362.739	3.13
363.203	3.97
363.668	3.96
364.133	3.58
364.597	3.98
365.062	3.05
365.527	2.85
365.991	4.39
366.456	3.27
366.92	3.43
367.385	3.91
367.849	2.51
368.314	3.03
368.778	3.17
369.242	3.31
369.707	3.29
370.171	3.46
370.635	4.72
371.1	3.09
371.564	3.06
372.028	3.32
372.492	3.79
372.956	3.54
373.42	3.35
373.884	4.1
374.348	4.36
374.812	3.15
375.276	3.93
375.74	3.75
376.204	3.74
376.668	3.81
377.132	3.05
377.596	3.76
378.06	3.78
378.524	3.62
378.987	3.49
379.451	3.46
379.915	3.3
380.378	4.14
380.842	3.53
381.306	4.06
381.769	3.69
382.233	4.07
382.696	3.88
383.16	3.97
383.623	4.29
384.087	3.69
384.55	3.86
385.014	4.22
385.477	3.54
385.94	4.04
386.404	3.89
386.867	3.76
387.33	3.99
387.793	3.94
388.256	3.98
388.72	4.41
389.183	3.94
389.646	4.39
390.109	3.46
390.572	3.87
391.035	3.69
391.498	3.84
391.961	3.59
392.424	4.29
392.887	4.41
393.35	4.16
393.812	3.57
394.275	3.58
394.738	3.95
395.201	4.54
395.664	3.95
396.126	3.49
396.589	4.15
397.052	3.68
397.514	3.69
397.977	3.61
398.439	4.16
398.902	3.69
399.364	4.2
399.827	3.97
400.289	4.53
400.752	3.98
401.214	4.06
401.676	4.15
402.139	3.87
402.601	3.83
403.063	3.89
403.525	4.33
403.988	4.15
404.45	3.85
404.912	4.09
405.374	3.46
405.836	4
406.298	4.3
406.76	3.94
407.222	4.12
407.684	3.92
408.146	4.1
408.608	4.57
409.07	4.28
409.532	3.28
409.994	4.59
410.456	4.09
410.917	3.63
411.379	4.93
411.841	3.92
412.303	4.5
412.764	3.89
413.226	3.6
413.687	3.78
414.149	4.17
414.611	3.64
415.072	3.61
415.534	4.17
415.995	3.84
416.457	3.65
416.918	3.43
417.379	3.71
417.841	4.23
418.302	4.51
418.763	4.82
419.225	4.63
419.686	4.13
420.147	4.07
420.608	4.45
421.069	3.92
421.53	3.89
421.991	4.09
422.453	4.02
422.914	3.79
423.375	3.91
423.836	4.05
424.297	4.64
424.757	3.89
425.218	3.84
425.679	3.99
426.14	4.33
426.601	4.41
427.062	3.64
427.522	3.56
427.983	3.77
428.444	4.87
428.904	3.23
429.365	3.63
429.826	4.09
430.286	3.73
430.747	4.78
431.207	4.57
431.668	4.56
432.128	4.19
432.589	3.43
433.049	4.12
433.509	4.45
433.97	4.21
434.43	4.36
434.89	3.9
435.351	4.72
435.811	3.68
436.271	3.45
436.731	5.03
437.191	4.82
437.651	4.02
438.112	5.8
438.572	3.51
439.032	3.48
439.492	5.64
439.952	4.47
440.412	5.4
440.871	3.95
441.331	4.79
441.791	4.26
442.251	6.09
442.711	4.08
443.171	5.93
443.63	4.47
444.09	4.24
444.55	4.86
445.009	4.83
445.469	4.68
445.929	4.14
446.388	4.87
446.848	4.44
447.307	5.47
447.767	4.92
448.226	4.1
448.686	5.23
449.145	4.15
449.604	5.13
450.064	4.91
450.523	4.6
450.982	5.38
451.442	4.99
451.901	4.5
452.36	4.51
452.819	3.99
453.278	4.22
453.737	5
454.197	4.29
454.656	4.2
455.115	4.02
455.574	4.27
456.033	5.79
456.492	5.34
456.95	4.34
457.409	4.91
457.868	5.79
458.327	4.46
458.786	4.4
459.245	4.03
459.703	5.04
460.162	4.65
460.621	4.42
461.079	4.32
461.538	3.72
461.997	4.76
462.455	4.12
462.914	3.89
463.372	4.74
463.831	5.51
464.289	3.82
464.748	5.3
465.206	5.24
465.664	5.07
466.123	5.25
466.581	4.98
467.039	5.29
467.497	3.68
467.956	4.3
468.414	4.76
468.872	4.73
469.33	5.17
469.788	5.06
470.246	4.94
470.704	5.86
471.162	4.22
471.62	6.15
472.078	4.02
472.536	5.6
472.994	5.07
473.452	5.78
473.91	6.06
474.368	5.48
474.826	6.66
475.283	4.66
475.741	3.81
476.199	3.95
476.656	5.81
477.114	4.67
477.572	5.4
478.029	5.54
478.487	5.75
478.944	4.85
479.402	4.83
479.859	5.39
480.317	4.2
480.774	5.88
481.232	4.73
481.689	5.14
482.146	6.48
482.604	5.09
483.061	4.11
483.518	6.81
483.975	6.13
484.433	3.66
484.89	5.61
485.347	5.73
485.804	3.89
486.261	2.93
486.718	5.85
487.175	5.17
487.632	5.01
488.089	4.3
488.546	5.37
489.003	6.08
489.46	6.04
489.917	5.13
490.373	5.95
490.83	4.5
491.287	4.55
491.744	7.02
492.2	6.53
492.657	5.81
493.114	4.65
493.57	4.57
494.027	6.12
494.484	6.21
494.94	5.75
495.397	5.49
495.853	5.51
496.31	5.73
496.766	5.48
497.222	6.36
497.679	5.24
498.135	5.17
498.591	5.32
499.048	6.3
499.504	5.18
499.96	5.6
500.416	7.56
500.872	5.98
501.329	6.52
501.785	5.5
502.241	6.61
502.697	5.73
503.153	5.67
503.609	6.85
504.065	5.2
504.521	6.2
504.977	5.8
505.432	6.3
505.888	6.71
506.344	6.39
506.8	7.2
507.256	5.36
507.711	6.73
508.167	5.41
508.623	6.3
509.078	6.69
509.534	6.25
509.99	6.81
510.445	6.01
510.901	6.27
511.356	6.69
511.812	7.27
512.267	6.03
512.722	6.18
513.178	6.06
513.633	6.37
514.089	6.98
514.544	5.79
514.999	6.34
515.454	6.49
515.91	6.72
516.365	6.34
516.82	6.66
517.275	7.46
517.73	6.71
518.185	6.72
518.64	7.82
519.095	7.01
519.55	6.42
520.005	6.55
520.46	7.85
520.915	6.49
521.37	6.91
521.825	5.88
522.28	7.16
522.734	6.03
523.189	6.77
523.644	6.65
524.099	7.1
524.553	6.49
525.008	6.93
525.462	7.64
525.917	6.79
526.372	6.91
526.826	7.9
527.281	6.56
527.735	7.2
528.19	6.46
528.644	7.7
529.098	7.62
529.553	7.24
530.007	7.8
530.461	6.81
530.916	7.44
531.37	7.2
531.824	7.5
532.278	7
532.732	6.72
533.186	7.39
533.641	7.41
534.095	7.21
534.549	7.65
535.003	7.03
535.457	7.72
535.911	7.74
536.365	7.32
536.818	7.11
537.272	7.58
537.726	7.23
538.18	7.63
538.634	7.46
539.087	7.51
539.541	7.01
539.995	7.01
540.449	7.34
540.902	8.31
541.356	7.5
541.809	7.04
542.263	6.32
542.716	8.14
543.17	7.67
543.623	6.89
544.077	7.98
544.53	7.29
544.984	6.98
545.437	7.4
545.89	7.6
546.344	7.18
546.797	7.45
547.25	7.23
547.703	6.79
548.157	8.55
548.61	7.08
549.063	8.76
549.516	6.39
549.969	7.12
550.422	8.16
550.875	6.81
551.328	6.69
551.781	7.6
552.234	6.87
552.687	7.65
553.14	7.48
553.592	7.54
554.045	7.46
554.498	7.43
554.951	7.89
555.404	8.6
555.856	7.33
556.309	8.3
556.762	7.18
557.214	7.39
557.667	7.65
558.119	8.16
558.572	8.41
559.024	7.84
559.477	7.54
559.929	8.51
560.382	7.86
560.834	8.66
561.286	7.65
561.739	7.92
562.191	7.81
562.643	8.42
563.095	8.69
563.548	8.35
564	8.45
564.452	8.28
564.904	8.34
565.356	8.02
565.808	8.76
566.26	7.76
566.712	7.87
567.164	8.43
567.616	8.19
568.068	9.5
568.52	9.01
568.972	9.01
569.424	7.89
569.876	8.31
570.327	7.98
570.779	7.97
571.231	8.48
571.682	9.05
572.134	8.1
572.586	8.52
573.037	8.94
573.489	8.74
573.941	8.56
574.392	8.35
574.844	8.81
575.295	7.87
575.746	8.56
576.198	8.08
576.649	8.81
577.101	8.53
577.552	9.15
578.003	8.4
578.454	8.23
578.906	8.65
579.357	8.58
579.808	9.07
580.259	8.02
580.71	8.63
581.161	8.91
581.612	8.25
582.064	8.61
582.515	8.33
582.965	8.6
583.416	8.7
583.867	8.17
584.318	9.24
584.769	8.85
585.22	9.07
585.671	8.1
586.122	8.62
586.572	8.98
587.023	8.88
587.474	8.96
587.924	8.89
588.375	9.04
588.826	8.96
589.276	9.04
589.727	8.78
590.177	8.72
590.628	8.6
591.078	8.97
591.529	9.23
591.979	8.71
592.429	9.29
592.88	8.73
593.33	9.45
593.78	9.56
594.231	9.05
594.681	8.36
595.131	9.19
595.581	9.77
596.031	8.99
596.481	9.61
596.932	9.12
597.382	9.06
597.832	9.02
598.282	9.21
598.732	9.65
599.182	9.16
599.632	9.15
600.081	8.1
600.531	9.06
600.981	9.34
601.431	9.58
601.881	9.23
602.33	9.11
602.78	8.79
603.23	9.03
603.679	9.5
604.129	9.43
604.579	9.5
605.028	9.19
605.478	9.53
605.927	9.41
606.377	9.73
606.826	9.59
607.276	9.08
607.725	9.74
608.175	10.06
608.624	9.82
609.073	9.6
609.522	9.43
609.972	9.45
610.421	9.39
610.87	9.85
611.319	9.48
611.768	9.09
612.218	9.2
612.667	9.94
613.116	9.8
613.565	9.96
614.014	9.5
614.463	9.8
614.912	10.01
615.361	9.84
615.81	9.9
616.258	9.59
616.707	9.51
617.156	9.93
617.605	10.16
618.054	9.6
618.502	10.41
618.951	9.91
619.4	10.06
619.848	9.99
620.297	10.15
620.745	9.72
621.194	9.93
621.642	9.71
622.091	9.77
622.539	9.59
622.988	9.94
623.436	9.77
623.885	10.85
624.333	9.6
624.781	10.43
625.23	10.13
625.678	10.06
626.126	10.13
626.574	10.35
627.022	10.63
627.471	9.85
627.919	9.9
628.367	9.89
628.815	10.38
629.263	10.38
629.711	10.45
630.159	10.4
630.607	10.25
631.055	9.95
631.503	10.39
631.95	10.18
632.398	9.99
632.846	10.64
633.294	10.86
633.742	10.4
634.189	10.27
634.637	10.44
635.085	10.34
635.532	11.02
635.98	10.53
636.427	10.86
636.875	10.44
637.323	10.28
637.77	10.28
638.217	11.3
638.665	10.47
639.112	10.23
639.56	10.46
640.007	10.7
640.454	10.24
640.902	10.52
641.349	11.28
641.796	10.61
642.243	10.82
642.69	10.63
643.138	10.55
643.585	10.78
644.032	10.76
644.479	10.91
644.926	10.69
645.373	11.01
645.82	10.79
646.267	11.01
646.714	10.58
647.161	10.63
647.607	11.01
648.054	10.72
648.501	10.8
648.948	10.99
649.395	10.48
649.841	10.53
650.288	10.65
650.735	10.8
651.181	10.63
651.628	10.77
652.075	10.96
652.521	10.75
652.968	11.67
653.414	10.78
653.861	10.77
654.307	10.96
654.753	11.28
655.2	11.12
655.646	11.01
656.092	11.25
656.539	10.94
656.985	10.96
657.431	11.51
657.877	11.12
658.324	11.08
658.77	11.17
659.216	11.63
659.662	12.1
660.108	10.82
660.554	11.62
661	11.38
661.446	11.39
661.892	11.64
662.338	11.46
662.784	11.42
663.23	11.3
663.675	11.89
664.121	11.56
664.567	11.39
665.013	11.42
665.458	11.47
665.904	11.8
666.35	11.2
666.795	11.76
667.241	11.44
667.687	11.66
668.132	11.48
668.578	11.95
669.023	11.48
669.469	10.71
669.914	11.54
670.359	11.65
670.805	11.47
671.25	11.29
671.695	11.57
672.141	11.77
672.586	12.03
673.031	12.28
673.476	11.71
673.922	12.01
674.367	11.36
674.812	12.08
675.257	11.51
675.702	11.86
676.147	11.8
676.592	11.56
677.037	11.9
677.482	12.03
677.927	12.2
678.372	11.85
678.817	12.01
679.261	12.24
679.706	11.92
680.151	12.12
680.596	11.98
681.04	12
681.485	12.6
681.93	12.33
682.374	12.25
682.819	12.1
683.264	11.61
683.708	12.03
684.153	12.63
684.597	11.96
685.042	12.26
685.486	12.23
685.93	12.36
686.375	12.06
686.819	12.72
687.263	12.3
687.708	12.38
688.152	12.55
688.596	12.36
689.04	12.14
689.485	12.48
689.929	12.55
690.373	12.25
690.817	12.9
691.261	12.22
691.705	12.32
692.149	12.42
692.593	12.26
693.037	12.77
693.481	12.65
693.925	12.55
694.369	12.88
694.812	12.25
695.256	12.18
695.7	12.4
696.144	12.52
696.587	12.44
697.031	12.74
697.475	12.7
697.918	13
698.362	12.71
698.806	12.59
699.249	12.76
699.693	12.56
700.136	12.79
700.58	12.48
701.023	12.5
701.466	13.04
701.91	12.96
702.353	12.98
702.796	12.77
703.24	12.91
703.683	12.84
704.126	12.66
704.569	12.86
705.013	13.31
705.456	12.77
705.899	13.15
706.342	12.78
706.785	12.98
707.228	12.48
707.671	12.82
708.114	13.71
708.557	13.51
709	12.77
709.443	13.22
709.886	13.39
710.328	13.06
710.771	13.21
711.214	13.1
711.657	13.3
712.099	12.74
712.542	13.21
712.985	13.49
713.427	12.88
713.87	13.04
714.313	13.28
714.755	13.3
715.198	13.69
715.64	13.64
716.083	13.46
716.525	13.17
716.967	13.69
717.41	13.5
717.852	13.41
718.295	13.58
718.737	13.43
719.179	13.34
719.621	13.93
720.063	12.96
720.506	13.66
720.948	13.73
721.39	13.59
721.832	13.6
722.274	13.57
722.716	13.7
723.158	13.73
723.6	13.67
724.042	13.62
724.484	13.82
724.926	13.82
725.368	13.93
725.81	14.16
726.251	13.62
726.693	13.82
727.135	13.76
727.577	14.27
728.018	14.09
728.46	13.17
728.902	13.85
729.343	13.75
729.785	14.39
730.226	14.18
730.668	13.45
731.109	13.91
731.551	13.71
731.992	14.29
732.434	14.24
732.875	14.13
733.316	13.9
733.758	14.03
734.199	14.28
734.64	14.3
735.081	14.13
735.523	14.09
735.964	14.08
736.405	14.39
736.846	14.29
737.287	13.97
737.728	14.33
738.169	13.94
738.61	14.49
739.051	14.48
739.492	14.02
739.933	14.57
740.374	14.52
740.815	14.6
741.256	13.82
741.696	14.34
742.137	14.85
742.578	14.25
743.019	14.38
743.459	14.55
743.9	14.5
744.341	14.65
744.781	14.49
745.222	14.55
745.662	14.88
746.103	14.41
746.543	14.28
746.984	14.69
747.424	14.58
747.865	15.27
748.305	14.18
748.745	14.78
749.186	14.5
749.626	15.03
750.066	14.88
750.506	14.87
750.947	15.03
751.387	14.8
751.827	14.83
752.267	15.28
752.707	14.53
753.147	14.57
753.587	15.06
754.027	15.19
754.467	14.84
754.907	15.12
755.347	14.9
755.787	15
756.227	15.23
756.667	15.46
757.107	14.89
757.546	14.97
757.986	15.5
758.426	15.12
758.865	15.23
759.305	14.91
759.745	15.1
760.184	14.93
760.624	15.22
761.063	15.28
761.503	15.34
761.943	15.32
762.382	15.53
762.821	15.44
763.261	15.71
763.7	15.36
764.14	15.54
764.579	15.19
765.018	15.44
765.457	15.68
765.897	15.39
766.336	15.05
766.775	15.68
767.214	15.79
767.653	15.24
768.092	14.94
768.531	15.89
768.97	15.51
769.409	15.64
769.848	15.76
770.287	15.55
770.726	15.72
771.165	15.91
771.604	15.73
772.043	15.82
772.482	15.5
772.92	16.28
773.359	16
773.798	15.91
774.237	15.6
774.675	15.84
775.114	15.84
775.553	16.1
775.991	16.12
776.43	16.01
776.868	15.81
777.307	16.65
777.745	15.57
778.184	15.92
778.622	15.92
779.06	16.35
779.499	15.82
779.937	16.14
780.375	15.89
780.814	16.33
781.252	15.87
781.69	16.17
782.128	16.28
782.566	16.1
783.004	16.18
783.443	16.64
783.881	16.23
784.319	16.95
784.757	16.22
785.195	16.45
785.633	16.14
786.071	16.7
786.508	16.6
786.946	16.5
787.384	16.26
787.822	16.43
788.26	16.36
788.697	16.33
789.135	16.87
789.573	16.81
790.011	16.25
790.448	16.12
790.886	16.6
791.323	16.77
791.761	16.98
792.198	16.87
792.636	17.12
793.073	16.79
793.511	17.09
793.948	17.01
794.386	17.16
794.823	16.9
795.26	16.95
795.698	16.71
796.135	17.05
796.572	17.04
797.009	17.4
797.446	17.33
797.884	17.59
798.321	17.18
798.758	16.94
799.195	17.07
799.632	17.33
800.069	17.23
800.506	17.36
800.943	17.39
801.38	17.19
801.817	17.02
802.254	17.19
802.69	17.17
803.127	17.27
803.564	17.37
804.001	17.46
804.438	17.6
804.874	17.12
805.311	17.04
805.748	17.42
806.184	17.36
806.621	17.27
807.057	17.53
807.494	17.74
807.93	17.3
808.367	17.45
808.803	17.46
809.24	17.96
809.676	17.63
810.112	17.65
810.549	17.91
810.985	17.97
811.421	17.74
811.857	17.73
812.294	18.49
812.73	17.94
813.166	17.9
813.602	17.83
814.038	18.47
814.474	17.85
814.91	17.83
815.346	18.11
815.782	18.16
816.218	17.83
816.654	17.99
817.09	18.25
817.526	18.02
817.962	18.52
818.398	18.04
818.833	18.17
819.269	18.3
819.705	18.39
820.141	18.29
820.576	18.31
821.012	18.26
821.447	18.56
821.883	18.42
822.319	18.34
822.754	18.68
823.19	18.72
823.625	18.18
824.061	18.3
824.496	18.39
824.931	18.32
825.367	18.14
825.802	18.51
826.237	18.54
826.673	18.86
827.108	18.53
827.543	18.95
827.978	18.88
828.413	18.42
828.849	18.62
829.284	18.81
829.719	18.53
830.154	18.53
830.589	18.85
831.024	18.83
831.459	19.16
