Data from JCR0014_SupralabialBlack_Reflection_00002.txt Node
Date: Thu Jul 23 15:03:01 ACST 2020
User: Stacey Dix
Spectrometer: MAYP113282
Scans to average: 1
Trigger mode: 0
Integration Time (sec): 1.000000E-1
Electric dark correction enabled: true
Boxcar width: 0
XAxis mode: Wavelengths
Number of Pixels in Spectrum: 2068
>>>>>Begin Spectral Data<<<<<
198.791	-1600
199.266	400
199.74	-57.14
200.215	-0
200.69	4.82
201.164	26.67
201.639	25.35
202.114	36.88
202.588	39.51
203.063	16.54
203.537	19.35
204.012	24.72
204.486	51.8
204.961	18.39
205.435	21.14
205.909	54.74
206.384	21.77
206.858	72.16
207.332	36.52
207.807	11.88
208.281	39.42
208.755	0
209.229	30.53
209.703	21.62
210.177	29.06
210.651	14.6
211.126	13.79
211.6	24.82
212.074	8.28
212.548	34.65
213.021	32.62
213.495	26.02
213.969	8.4
214.443	-18.6
214.917	35.46
215.391	4.73
215.864	18.71
216.338	25.14
216.812	20.36
217.286	29.85
217.759	15.38
218.233	19.58
218.706	31.21
219.18	30.9
219.654	1.01
220.127	12.88
220.6	22.12
221.074	19.16
221.547	8.66
222.021	19.05
222.494	22.91
222.967	0
223.441	9.3
223.914	4.07
224.387	10.79
224.86	16.2
225.334	13.26
225.807	16.22
226.28	7.09
226.753	27.37
227.226	11.93
227.699	14.45
228.172	22.27
228.645	8.5
229.118	13.66
229.591	13.77
230.064	16.31
230.537	7.7
231.01	5.52
231.482	13.51
231.955	-7.91
232.428	16.25
232.901	6.44
233.373	6.24
233.846	9.47
234.319	0
234.791	11.83
235.264	11.19
235.736	3.85
236.209	11.98
236.681	5.35
237.154	8.06
237.626	10.28
238.099	9.46
238.571	9.89
239.044	10.57
239.516	9.42
239.988	9.53
240.46	9.84
240.933	9.01
241.405	10.44
241.877	8.41
242.349	9.12
242.821	7.89
243.293	8.37
243.765	6.54
244.237	13.76
244.71	4.02
245.181	10.65
245.653	8.87
246.125	7.7
246.597	11.57
247.069	8.82
247.541	8.87
248.013	6.87
248.485	7.26
248.956	5.27
249.428	6.73
249.9	8.71
250.371	7.21
250.843	8.09
251.315	5.95
251.786	6.86
252.258	9.09
252.729	7.84
253.201	8.04
253.672	5.97
254.144	6.93
254.615	5.49
255.086	6.34
255.558	6.44
256.029	6.05
256.5	8.52
256.972	6.18
257.443	6.93
257.914	7.71
258.385	7.07
258.856	5.17
259.327	7.97
259.799	7.51
260.27	6.01
260.741	8.38
261.212	7.44
261.683	8.22
262.154	7.83
262.624	6.78
263.095	4.94
263.566	5.46
264.037	6.45
264.508	6.96
264.979	5.78
265.449	5.27
265.92	7.55
266.391	6.02
266.861	7.44
267.332	6.15
267.803	7.03
268.273	7.09
268.744	7.36
269.214	6.5
269.685	7.74
270.155	5.21
270.626	6.3
271.096	4.93
271.566	5.27
272.037	5.65
272.507	7.67
272.977	5.92
273.448	6.92
273.918	4.53
274.388	6.74
274.858	7.35
275.328	6.14
275.798	6.94
276.268	5.15
276.738	8.65
277.208	7.09
277.678	5.69
278.148	4.21
278.618	5.82
279.088	5.27
279.558	7.56
280.028	5.28
280.498	7.13
280.968	5.09
281.437	6.49
281.907	6.77
282.377	7.65
282.847	5.56
283.316	5.29
283.786	4.34
284.255	5.93
284.725	7.51
285.194	5.67
285.664	6.01
286.133	5.58
286.603	5.77
287.072	6.21
287.542	7.54
288.011	6.06
288.48	6.47
288.95	4.57
289.419	6.11
289.888	5.65
290.357	6.82
290.827	6.44
291.296	4.15
291.765	7.2
292.234	6.18
292.703	6.39
293.172	8.71
293.641	4.75
294.11	5.41
294.579	6.85
295.048	5.44
295.517	6.58
295.986	5.37
296.455	5.27
296.923	4.99
297.392	6.82
297.861	8.2
298.33	5.36
298.798	5.07
299.267	7.7
299.736	5.14
300.204	6.75
300.673	5.75
301.141	7.36
301.61	4.19
302.079	7.29
302.547	6.23
303.015	6.45
303.484	6.75
303.952	6.63
304.421	5.93
304.889	5.66
305.357	8.59
305.825	5.57
306.294	6.71
306.762	6.22
307.23	7.85
307.698	6.2
308.166	6.4
308.634	6.71
309.103	7.21
309.571	5.63
310.039	7.95
310.507	7.22
310.975	5.78
311.442	7.9
311.91	9.13
312.378	7.99
312.846	6.7
313.314	7.26
313.782	7.43
314.249	7.47
314.717	7.67
315.185	8.44
315.652	8.07
316.12	8.36
316.588	8.12
317.055	7.57
317.523	7.23
317.99	8.81
318.458	8.21
318.925	6.62
319.393	7.77
319.86	8.25
320.328	8.28
320.795	7.87
321.262	7.35
321.73	9.81
322.197	7.83
322.664	7.42
323.131	9.61
323.598	8.43
324.066	9.25
324.533	8.33
325	11.29
325.467	7.97
325.934	8.83
326.401	11.33
326.868	12.9
327.335	11.37
327.802	11.87
328.269	11.33
328.735	13.83
329.202	12.36
329.669	14.35
330.136	14.62
330.603	15.13
331.069	15.37
331.536	16.19
332.003	18.37
332.469	19.07
332.936	17.43
333.402	18.28
333.869	18.85
334.336	18.16
334.802	19.04
335.268	19.72
335.735	20.65
336.201	20.65
336.668	20.61
337.134	20.28
337.6	22.96
338.067	23.28
338.533	21.12
338.999	22.54
339.465	22.78
339.931	21.49
340.398	22.96
340.864	22.6
341.33	23.76
341.796	21.88
342.262	23.14
342.728	23.53
343.194	24.9
343.66	23.4
344.126	22.6
344.592	21.08
345.057	24.32
345.523	22.45
345.989	20.75
346.455	23.57
346.921	22.87
347.386	22.82
347.852	20.71
348.318	23.24
348.783	20.72
349.249	22.17
349.714	22.05
350.18	22.01
350.645	23.21
351.111	23.61
351.576	23.51
352.042	22.15
352.507	20.56
352.973	22.89
353.438	21.6
353.903	20.6
354.369	22.5
354.834	22.09
355.299	21.3
355.764	20.73
356.229	20.78
356.695	20.12
357.16	21.64
357.625	22.47
358.09	21.89
358.555	22.03
359.02	23.79
359.485	21.21
359.95	19.97
360.415	24.05
360.879	23.02
361.344	21.64
361.809	21.55
362.274	22.15
362.739	21.35
363.203	23.25
363.668	20.57
364.133	21.9
364.597	22.15
365.062	22.36
365.527	23.5
365.991	18.69
366.456	21.36
366.92	20.71
367.385	20.19
367.849	21.16
368.314	19.91
368.778	20.87
369.242	20.72
369.707	21.44
370.171	21.15
370.635	19.81
371.1	20.43
371.564	21.34
372.028	21.34
372.492	21.79
372.956	20.27
373.42	19.08
373.884	21.36
374.348	20.98
374.812	18.29
375.276	20.99
375.74	20.01
376.204	20.93
376.668	21.78
377.132	20.94
377.596	20.62
378.06	20.75
378.524	19.82
378.987	20.36
379.451	19.98
379.915	20.52
380.378	20.17
380.842	20.59
381.306	20.12
381.769	17.92
382.233	19.33
382.696	21.78
383.16	18.74
383.623	18.39
384.087	20.08
384.55	21.51
385.014	19.16
385.477	19.81
385.94	21.59
386.404	20.71
386.867	20.67
387.33	18.79
387.793	20.85
388.256	18.29
388.72	16.93
389.183	19.19
389.646	21.39
390.109	19.56
390.572	17.83
391.035	18.91
391.498	18.47
391.961	18.92
392.424	19.94
392.887	18.49
393.35	18.34
393.812	20.21
394.275	18.41
394.738	18.45
395.201	18.84
395.664	19.36
396.126	19.05
396.589	18.98
397.052	19.05
397.514	17.73
397.977	16.6
398.439	19.22
398.902	17.87
399.364	17.64
399.827	17.65
400.289	19.51
400.752	16.77
401.214	16.84
401.676	18.12
402.139	16.16
402.601	18.16
403.063	16.81
403.525	18.88
403.988	16.79
404.45	18.37
404.912	17.81
405.374	19.17
405.836	16.66
406.298	17.06
406.76	17.05
407.222	17.53
407.684	17.48
408.146	18.13
408.608	16.18
409.07	15.88
409.532	16.47
409.994	16.83
410.456	16.38
410.917	15.85
411.379	14.88
411.841	15.92
412.303	16.22
412.764	16
413.226	16.08
413.687	16.09
414.149	16.12
414.611	15.18
415.072	14.34
415.534	15.65
415.995	14.68
416.457	17.05
416.918	14.68
417.379	15.31
417.841	15.15
418.302	16.62
418.763	15.98
419.225	15.63
419.686	16.15
420.147	16.51
420.608	15.62
421.069	16.02
421.53	15.63
421.991	16.32
422.453	15.59
422.914	17.74
423.375	16.8
423.836	16.8
424.297	16.76
424.757	17.15
425.218	16.17
425.679	16.47
426.14	16.3
426.601	18.12
427.062	15.17
427.522	17.93
427.983	17.84
428.444	16.21
428.904	18.44
429.365	16.95
429.826	17.7
430.286	16.78
430.747	17.5
431.207	15.32
431.668	15.8
432.128	16.42
432.589	19.39
433.049	16.3
433.509	19.77
433.97	16.78
434.43	19.23
434.89	15.94
435.351	16.22
435.811	16.71
436.271	17.21
436.731	18.86
437.191	16.18
437.651	17.21
438.112	16.3
438.572	21.43
439.032	17.07
439.492	18.02
439.952	17.3
440.412	15.44
440.871	17.2
441.331	18.31
441.791	18.68
442.251	19.09
442.711	17.72
443.171	17.97
443.63	18.97
444.09	20.19
444.55	19.37
445.009	19.49
445.469	15.07
445.929	18.4
446.388	19.89
446.848	19.02
447.307	17.61
447.767	20.02
448.226	16.72
448.686	14.54
449.145	15.34
449.604	17.43
450.064	19.86
450.523	18.3
450.982	18.59
451.442	17.1
451.901	18.55
452.36	16.97
452.819	19.37
453.278	20.52
453.737	17.54
454.197	18.06
454.656	17.99
455.115	17.62
455.574	17.12
456.033	18.28
456.492	21.47
456.95	16.8
457.409	17.2
457.868	17.81
458.327	19.22
458.786	16.94
459.245	18.5
459.703	17.9
460.162	17.61
460.621	20.03
461.079	16.8
461.538	16.45
461.997	20.74
462.455	18.42
462.914	15.66
463.372	18.82
463.831	16.52
464.289	16.47
464.748	19.3
465.206	17.81
465.664	20.89
466.123	18.98
466.581	15.97
467.039	19.54
467.497	19.83
467.956	17.95
468.414	18.24
468.872	19.56
469.33	18.93
469.788	17.95
470.246	18.48
470.704	19.09
471.162	17.9
471.62	19.37
472.078	18.48
472.536	19.92
472.994	16.91
473.452	18.46
473.91	16.54
474.368	16.16
474.826	17.17
475.283	20.44
475.741	15.74
476.199	16.75
476.656	19.59
477.114	16.62
477.572	20.23
478.029	18.49
478.487	16.57
478.944	18.67
479.402	16.47
479.859	19.64
480.317	18.31
480.774	17.41
481.232	16.49
481.689	21.43
482.146	17.57
482.604	21.04
483.061	18.54
483.518	18.2
483.975	17.06
484.433	16.4
484.89	16.95
485.347	20.7
485.804	19.77
486.261	20.33
486.718	15.35
487.175	15.97
487.632	19.7
488.089	19.57
488.546	18.9
489.003	17.76
489.46	16.35
489.917	20.95
490.373	18.96
490.83	19.99
491.287	19.61
491.744	20.66
492.2	17.37
492.657	19.13
493.114	21.26
493.57	18.94
494.027	19.5
494.484	19.62
494.94	18.58
495.397	20.44
495.853	22.05
496.31	20.95
496.766	19.02
497.222	20.85
497.679	19.43
498.135	22.05
498.591	20.36
499.048	19.73
499.504	18.38
499.96	18.54
500.416	20.73
500.872	18.54
501.329	18.29
501.785	22.52
502.241	18.24
502.697	21.09
503.153	19.61
503.609	19.37
504.065	19.82
504.521	18.81
504.977	17.57
505.432	21.21
505.888	20.12
506.344	22.61
506.8	18.11
507.256	21.13
507.711	22.26
508.167	19.32
508.623	20.04
509.078	19.54
509.534	22.23
509.99	20.4
510.445	21.97
510.901	21.97
511.356	21.23
511.812	21.57
512.267	19.99
512.722	20.71
513.178	20.58
513.633	21.4
514.089	19.38
514.544	20.78
514.999	22.24
515.454	21.17
515.91	20.89
516.365	22.84
516.82	22.34
517.275	19.74
517.73	21.72
518.185	19.47
518.64	22.73
519.095	21.45
519.55	20.67
520.005	22.69
520.46	20.74
520.915	21.83
521.37	24.12
521.825	21.85
522.28	20.47
522.734	22.59
523.189	22.33
523.644	21.75
524.099	20.8
524.553	21.56
525.008	20.64
525.462	21.87
525.917	21.31
526.372	22.42
526.826	21.67
527.281	22.02
527.735	22.42
528.19	19.85
528.644	20.95
529.098	21.53
529.553	19.88
530.007	22.21
530.461	22
530.916	22.27
531.37	22.26
531.824	20.4
532.278	20.55
532.732	21.12
533.186	21.74
533.641	21.93
534.095	20.57
534.549	21.93
535.003	22.48
535.457	20.79
535.911	21.51
536.365	23
536.818	22.34
537.272	23.26
537.726	21.7
538.18	21.05
538.634	22.48
539.087	20.58
539.541	22.79
539.995	21.48
540.449	23.21
540.902	21.56
541.356	23.15
541.809	24.32
542.263	22.19
542.716	22.56
543.17	23.68
543.623	22.46
544.077	20.71
544.53	24.95
544.984	22.29
545.437	20.21
545.89	25.6
546.344	19.88
546.797	21.54
547.25	23.96
547.703	22.66
548.157	22.19
548.61	23.78
549.063	22.19
549.516	26.62
549.969	25.54
550.422	25.07
550.875	23.9
551.328	20.78
551.781	20.77
552.234	22.32
552.687	23.3
553.14	21.66
553.592	25.62
554.045	19.88
554.498	24.83
554.951	24.96
555.404	24.24
555.856	24.86
556.309	23.63
556.762	24.22
557.214	25.12
557.667	23.56
558.119	26.03
558.572	26.09
559.024	26.88
559.477	24.01
559.929	23.44
560.382	24.1
560.834	24.03
561.286	25.49
561.739	26.4
562.191	25.37
562.643	24.08
563.095	25.14
563.548	25.65
564	25.19
564.452	25.29
564.904	25.66
565.356	26.06
565.808	26.96
566.26	25.85
566.712	25.05
567.164	25.38
567.616	23.07
568.068	26.55
568.52	24.76
568.972	23.37
569.424	25.07
569.876	24.2
570.327	24.62
570.779	25.61
571.231	22.89
571.682	25.32
572.134	24.84
572.586	24.32
573.037	26.64
573.489	25.34
573.941	27.82
574.392	23.14
574.844	25.83
575.295	26.14
575.746	24.94
576.198	25.03
576.649	25.17
577.101	26.74
577.552	25.65
578.003	24.72
578.454	24.94
578.906	24.69
579.357	25.87
579.808	26.34
580.259	25.55
580.71	24.51
581.161	25.68
581.612	24.62
582.064	25.85
582.515	26.19
582.965	25.9
583.416	25.3
583.867	26.5
584.318	24.78
584.769	26.28
585.22	26.65
585.671	25.63
586.122	27.13
586.572	26.22
587.023	26.15
587.474	26.92
587.924	24.13
588.375	26.31
588.826	27.14
589.276	27.19
589.727	28.4
590.177	26.88
590.628	28.69
591.078	28.04
591.529	25.45
591.979	28.21
592.429	27.8
592.88	26.47
593.33	28.42
593.78	27.18
594.231	26.68
594.681	27.99
595.131	26.47
595.581	27.29
596.031	27.56
596.481	27.01
596.932	27.07
597.382	27.77
597.832	27.47
598.282	28.06
598.732	26.44
599.182	28.15
599.632	27.84
600.081	27.93
600.531	27.33
600.981	26.64
601.431	27.11
601.881	27.5
602.33	27.18
602.78	25.02
603.23	26.51
603.679	28.93
604.129	25.27
604.579	26.5
605.028	27.12
605.478	26.95
605.927	28.89
606.377	26.12
606.826	28.31
607.276	27.47
607.725	28.58
608.175	27.92
608.624	25.97
609.073	28.36
609.522	27.63
609.972	26.07
610.421	29.18
610.87	27.04
611.319	27.58
611.768	26.99
612.218	29.02
612.667	27.29
613.116	28.92
613.565	27.62
614.014	26.66
614.463	27.32
614.912	27.11
615.361	27.95
615.81	28.22
616.258	28.73
616.707	29.97
617.156	29.27
617.605	27.73
618.054	28.85
618.502	27.15
618.951	28.51
619.4	27.92
619.848	28.93
620.297	29.01
620.745	28.86
621.194	26.69
621.642	29.05
622.091	28.47
622.539	29.13
622.988	27.37
623.436	28.81
623.885	28
624.333	28.46
624.781	28.33
625.23	28.38
625.678	27.09
626.126	29.26
626.574	29.27
627.022	28.16
627.471	28.08
627.919	27.98
628.367	27.49
628.815	28.1
629.263	29.16
629.711	29.41
630.159	27.77
630.607	29.19
631.055	28.16
631.503	27.5
631.95	28.45
632.398	28.54
632.846	28.14
633.294	28.38
633.742	29.02
634.189	28.08
634.637	29.18
635.085	30.08
635.532	28.5
635.98	28.72
636.427	29.18
636.875	28.43
637.323	27.48
637.77	28.01
638.217	29.4
638.665	28.87
639.112	29
639.56	28.98
640.007	29
640.454	29.26
640.902	29.01
641.349	28.67
641.796	28.92
642.243	28.86
642.69	28.76
643.138	28.55
643.585	30.99
644.032	27.18
644.479	29.31
644.926	28.62
645.373	29.94
645.82	29.86
646.267	29.22
646.714	29.23
647.161	29.25
647.607	28.76
648.054	28.52
648.501	29.7
648.948	29.84
649.395	27.9
649.841	29.45
650.288	29.64
650.735	29.31
651.181	28.92
651.628	29.23
652.075	28.85
652.521	29.47
652.968	27.85
653.414	29.29
653.861	30.69
654.307	28.7
654.753	29.43
655.2	29.8
655.646	28.8
656.092	28.61
656.539	28.43
656.985	29.37
657.431	29.9
657.877	29.16
658.324	30.33
658.77	29.38
659.216	29.12
659.662	29.2
660.108	28.97
660.554	30.01
661	30.56
661.446	28.43
661.892	30.07
662.338	30.11
662.784	28.31
663.23	29.27
663.675	30.67
664.121	28.98
664.567	29.61
665.013	29.3
665.458	29.6
665.904	30.62
666.35	29.83
666.795	29.38
667.241	29.77
667.687	29.32
668.132	30.58
668.578	28.65
669.023	29.76
669.469	29.61
669.914	30.74
670.359	29.85
670.805	29.14
671.25	30.05
671.695	29.01
672.141	29.59
672.586	29.94
673.031	30.72
673.476	29.64
673.922	28.75
674.367	29.7
674.812	29.75
675.257	30.18
675.702	29.82
676.147	30.5
676.592	30.49
677.037	30.38
677.482	30.54
677.927	30.41
678.372	29.45
678.817	29.52
679.261	30.91
679.706	30.88
680.151	30.08
680.596	29.77
681.04	29.59
681.485	29.52
681.93	30.52
682.374	30.65
682.819	30.26
683.264	29.95
683.708	30.59
684.153	29.75
684.597	31.18
685.042	29.52
685.486	30.73
685.93	30.57
686.375	29.66
686.819	30.89
687.263	29.67
687.708	30.06
688.152	30.98
688.596	30.58
689.04	30.15
689.485	29.89
689.929	30.53
690.373	29.94
690.817	29.43
691.261	30.57
691.705	30.72
692.149	29.8
692.593	31.49
693.037	30.12
693.481	29.84
693.925	29.58
694.369	30.2
694.812	29.46
695.256	30.2
695.7	30.74
696.144	30.97
696.587	29.3
697.031	30.75
697.475	29.44
697.918	30.58
698.362	29.98
698.806	30.73
699.249	31.54
699.693	30.34
700.136	29.4
700.58	31.65
701.023	29.98
701.466	31.72
701.91	30.29
702.353	30.25
702.796	31.21
703.24	30.99
703.683	30.35
704.126	30.38
704.569	30.55
705.013	29.95
705.456	30.58
705.899	29.7
706.342	30.86
706.785	30.66
707.228	30.57
707.671	30.33
708.114	31.77
708.557	30.31
709	30.18
709.443	30.62
709.886	31.42
710.328	30.5
710.771	31.02
711.214	30.33
711.657	30.76
712.099	30.62
712.542	31.43
712.985	30.39
713.427	30.01
713.87	30.9
714.313	30.91
714.755	31.41
715.198	30.78
715.64	29.76
716.083	30.66
716.525	30
716.967	30.32
717.41	30.85
717.852	31.79
718.295	30.68
718.737	31.28
719.179	31.42
719.621	30.69
720.063	30.62
720.506	31.24
720.948	31.66
721.39	30.98
721.832	30.68
722.274	30.86
722.716	30.38
723.158	31.97
723.6	30.93
724.042	32.04
724.484	31.24
724.926	30.54
725.368	31.08
725.81	31.73
726.251	30.74
726.693	30.85
727.135	32.26
727.577	30.76
728.018	31.27
728.46	30.54
728.902	31.28
729.343	31.49
729.785	31.34
730.226	30.67
730.668	29.71
731.109	31.71
731.551	30.65
731.992	31.23
732.434	31.53
732.875	31.57
733.316	31.76
733.758	30.87
734.199	29.95
734.64	30.93
735.081	30.6
735.523	30.64
735.964	31.46
736.405	31.06
736.846	31.35
737.287	30.91
737.728	30.41
738.169	31.01
738.61	31.84
739.051	30.83
739.492	31.51
739.933	31.34
740.374	31.02
740.815	30.98
741.256	31.51
741.696	31.94
742.137	31.37
742.578	31.14
743.019	31.67
743.459	31.28
743.9	31.8
744.341	30.92
744.781	31.89
745.222	31.19
745.662	31.39
746.103	30.96
746.543	30.36
746.984	31.26
747.424	30.83
747.865	32.45
748.305	31.21
748.745	31.12
749.186	30.74
749.626	31.22
750.066	30.85
750.506	32.07
750.947	31.56
751.387	31.6
751.827	31.63
752.267	31.32
752.707	31.22
753.147	31.5
753.587	31.88
754.027	31.57
754.467	31.91
754.907	31.69
755.347	31.38
755.787	31.13
756.227	32.12
756.667	31.55
757.107	31.83
757.546	31.66
757.986	30.34
758.426	31.54
758.865	31.87
759.305	32.04
759.745	31.39
760.184	31.96
760.624	31.43
761.063	32.35
761.503	32.16
761.943	32.38
762.382	31.97
762.821	31.94
763.261	31.21
763.7	31.53
764.14	32.74
764.579	32.09
765.018	31.42
765.457	32.31
765.897	32.42
766.336	32.43
766.775	33.18
767.214	31.04
767.653	32.44
768.092	31.71
768.531	31.88
768.97	32.12
769.409	32.36
769.848	31.67
770.287	32.39
770.726	32.77
771.165	31.61
771.604	32.88
772.043	32.32
772.482	32.35
772.92	32.12
773.359	31.65
773.798	32.14
774.237	31.78
774.675	33.21
775.114	32.64
775.553	32.19
775.991	32.3
776.43	32.34
776.868	32.56
777.307	32.2
777.745	33.11
778.184	31.71
778.622	32.76
779.06	32.83
779.499	33.01
779.937	32.32
780.375	32.62
780.814	32.74
781.252	31.51
781.69	33.12
782.128	33.72
782.566	32.12
783.004	31.79
783.443	32.09
783.881	32.29
784.319	33.36
784.757	32.08
785.195	31.87
785.633	33.49
786.071	33.54
786.508	33.34
786.946	32.29
787.384	32.22
787.822	33.01
788.26	33.64
788.697	32.12
789.135	33.24
789.573	32.08
790.011	33.01
790.448	32.21
790.886	33.6
791.323	31.8
791.761	33.26
792.198	33.21
792.636	33
793.073	32.71
793.511	32.33
793.948	32.7
794.386	34.13
794.823	33.05
795.26	32.6
795.698	31.56
796.135	33.23
796.572	33.03
797.009	32.6
797.446	34.03
797.884	33.96
798.321	32.76
798.758	32.73
799.195	32.69
799.632	32.92
800.069	32.76
800.506	33.49
800.943	33.62
801.38	32.97
801.817	32.97
802.254	32.79
802.69	33.97
803.127	33.65
803.564	33.29
804.001	33
804.438	34.16
804.874	32.13
805.311	33.17
805.748	33.61
806.184	33.46
806.621	33.78
807.057	34.06
807.494	34.29
807.93	34.23
808.367	33.45
808.803	33.14
809.24	33.54
809.676	33.13
810.112	33.46
810.549	33.65
