Data from JCR0018_SupralabialWhite_Reflection_00001.txt Node
Date: Thu Jul 23 16:35:14 ACST 2020
User: Stacey Dix
Spectrometer: MAYP113282
Scans to average: 1
Trigger mode: 0
Integration Time (sec): 1.000000E-1
Electric dark correction enabled: true
Boxcar width: 0
XAxis mode: Wavelengths
Number of Pixels in Spectrum: 2068
>>>>>Begin Spectral Data<<<<<
198.791	-266.67
199.266	266.67
199.74	133.33
200.215	0
200.69	-14.16
201.164	-10.33
201.639	6.23
202.114	13.1
202.588	-4.66
203.063	22.87
203.537	13.33
204.012	19.37
204.486	0.67
204.961	6.44
205.435	8.33
205.909	9.41
206.384	-8.52
206.858	19.31
207.332	13.91
207.807	-2.8
208.281	25.12
208.755	-0.25
209.229	-2.05
209.703	18.08
210.177	18.27
210.651	5.36
211.126	23.46
211.6	5.7
212.074	20.05
212.548	15.56
213.021	23.31
213.495	30.26
213.969	9.59
214.443	0.37
214.917	3.28
215.391	11.28
215.864	0.39
216.338	1.47
216.812	10.69
217.286	-3.18
217.759	15.34
218.233	11.39
218.706	9.67
219.18	5.15
219.654	1.99
220.127	13.75
220.6	9.03
221.074	-0.11
221.547	8.38
222.021	0.21
222.494	1.51
222.967	8.03
223.441	-3.17
223.914	5.12
224.387	0.91
224.86	6.79
225.334	1.02
225.807	5.43
226.28	3.01
226.753	2.16
227.226	0.91
227.699	2.22
228.172	4.28
228.645	4.26
229.118	3.34
229.591	0.95
230.064	1.95
230.537	2.8
231.01	4.17
231.482	2.42
231.955	-0.5
232.428	2.09
232.901	2.54
233.373	2.27
233.846	1.89
234.319	3.07
234.791	0.12
235.264	1.52
235.736	0.5
236.209	0.55
236.681	1
237.154	1.51
237.626	1.64
238.099	0.85
238.571	3.51
239.044	1.54
239.516	1.59
239.988	1.28
240.46	3.06
240.933	1.3
241.405	0.77
241.877	0.34
242.349	2.4
242.821	1.59
243.293	1.37
243.765	2.66
244.237	1.89
244.71	1.78
245.181	1.54
245.653	2.2
246.125	1.45
246.597	1.43
247.069	1.36
247.541	1.29
248.013	2.23
248.485	1.5
248.956	1.55
249.428	0.78
249.9	1.11
250.371	1.68
250.843	1.12
251.315	1
251.786	1.9
252.258	1
252.729	1.61
253.201	1.23
253.672	1.65
254.144	0.99
254.615	1.18
255.086	1.31
255.558	0.31
256.029	1
256.5	1.2
256.972	1.02
257.443	1.34
257.914	1.17
258.385	1.19
258.856	1.4
259.327	0.97
259.799	0.83
260.27	1.23
260.741	0.91
261.212	1.19
261.683	0.83
262.154	0.81
262.624	0.65
263.095	0.65
263.566	1.24
264.037	0.95
264.508	0.64
264.979	1.22
265.449	1.11
265.92	0.7
266.391	0.6
266.861	0.96
267.332	0.78
267.803	0.99
268.273	1.2
268.744	0.55
269.214	0.62
269.685	0.93
270.155	0.51
270.626	1.41
271.096	0.81
271.566	1.47
272.037	1.44
272.507	1.19
272.977	-0.63
273.448	0.31
273.918	0.46
274.388	1.63
274.858	0.47
275.328	0.91
275.798	0.78
276.268	1.09
276.738	1.28
277.208	1.18
277.678	0.88
278.148	0.52
278.618	-0.17
279.088	0.81
279.558	0.73
280.028	0.28
280.498	1.18
280.968	1.16
281.437	0.58
281.907	0.4
282.377	0.63
282.847	0.42
283.316	0.93
283.786	0.85
284.255	0.37
284.725	0.2
285.194	0.48
285.664	1.05
286.133	0.75
286.603	0.79
287.072	1.29
287.542	0.79
288.011	0.67
288.48	0.11
288.95	1.26
289.419	0.64
289.888	1.15
290.357	0.44
290.827	0.98
291.296	0.78
291.765	1.36
292.234	1.06
292.703	0.39
293.172	0.36
293.641	0.94
294.11	0.92
294.579	0.78
295.048	0.99
295.517	0.72
295.986	1.14
296.455	1.27
296.923	0.89
297.392	1.19
297.861	0.42
298.33	1.35
298.798	0.36
299.267	0.74
299.736	0.6
300.204	-0.1
300.673	0.24
301.141	1.13
301.61	1.25
302.079	0.64
302.547	1.97
303.015	0.69
303.484	0.77
303.952	1.61
304.421	1.14
304.889	1.25
305.357	0.8
305.825	1.28
306.294	1.35
306.762	2.11
307.23	1.22
307.698	1.64
308.166	1.03
308.634	1.13
309.103	0.83
309.571	1.69
310.039	1.71
310.507	1.36
310.975	0.91
311.442	1.47
311.91	1.61
312.378	2.12
312.846	1.47
313.314	1.44
313.782	1.04
314.249	1.83
314.717	2
315.185	1.62
315.652	2.14
316.12	1.52
316.588	1.83
317.055	1.17
317.523	1.77
317.99	1.24
318.458	1.94
318.925	1.98
319.393	1.64
319.86	1.6
320.328	2.27
320.795	1.48
321.262	1.77
321.73	1.93
322.197	2.33
322.664	1.61
323.131	2.3
323.598	2.16
324.066	2.39
324.533	2.02
325	3.06
325.467	3.18
325.934	2.28
326.401	2.69
326.868	3.08
327.335	3.54
327.802	3.26
328.269	4.98
328.735	4.51
329.202	4.5
329.669	4.79
330.136	5.99
330.603	5.61
331.069	5.6
331.536	6.08
332.003	6.27
332.469	6.58
332.936	7.2
333.402	6.97
333.869	6.95
334.336	6.53
334.802	8.31
335.268	7.66
335.735	8.58
336.201	8.5
336.668	8.67
337.134	8.83
337.6	8.35
338.067	8.2
338.533	8.73
338.999	8.66
339.465	8.69
339.931	8.68
340.398	8.83
340.864	8.9
341.33	8.58
341.796	8.26
342.262	9.47
342.728	9.44
343.194	8.78
343.66	8.48
344.126	8.97
344.592	7.58
345.057	9.71
345.523	9.39
345.989	8.59
346.455	8.39
346.921	9.61
347.386	9.15
347.852	8.99
348.318	8.98
348.783	8.63
349.249	8.56
349.714	9.05
350.18	8.8
350.645	9.05
351.111	8.86
351.576	8.49
352.042	8.73
352.507	9.5
352.973	7.49
353.438	9.61
353.903	8.61
354.369	8.76
354.834	9.31
355.299	8.96
355.764	9.22
356.229	8.95
356.695	9.49
357.16	9.05
357.625	8.73
358.09	8
358.555	10.02
359.02	9.52
359.485	9.04
359.95	9.3
360.415	8.87
360.879	9.61
361.344	8.42
361.809	9.33
362.274	8.78
362.739	8.64
363.203	9.75
363.668	9.3
364.133	8.83
364.597	9.48
365.062	8.48
365.527	8.89
365.991	9.31
366.456	9.14
366.92	9.5
367.385	9.81
367.849	8.65
368.314	9.13
368.778	8.61
369.242	8.49
369.707	9.07
370.171	9.36
370.635	8.91
371.1	9.01
371.564	9.18
372.028	9.01
372.492	9.28
372.956	8.85
373.42	9.04
373.884	8.84
374.348	9.33
374.812	8.75
375.276	9.19
375.74	9.35
376.204	8.88
376.668	9.27
377.132	8.96
377.596	8.93
378.06	8.87
378.524	8.5
378.987	9.11
379.451	9.47
379.915	8.58
380.378	9.23
380.842	8.36
381.306	9.23
381.769	8.39
382.233	9.15
382.696	8.38
383.16	9.56
383.623	8.62
384.087	8.66
384.55	9.47
385.014	9.29
385.477	8.77
385.94	8.61
386.404	8.32
386.867	8.29
387.33	9.17
387.793	8.46
388.256	8.43
388.72	9.44
389.183	8.36
389.646	9.1
390.109	7.61
390.572	8.11
391.035	9.28
391.498	8.65
391.961	8.38
392.424	8.88
392.887	8.45
393.35	7.95
393.812	8.36
394.275	8.48
394.738	8.04
395.201	8.65
395.664	7.46
396.126	7.54
396.589	8.86
397.052	7.67
397.514	8.13
397.977	7.85
398.439	8.11
398.902	7.73
399.364	7.93
399.827	8.08
400.289	8.73
400.752	7.83
401.214	7.82
401.676	7.49
402.139	7.56
402.601	7.37
403.063	7.62
403.525	7.3
403.988	7.33
404.45	7.13
404.912	8
405.374	7.51
405.836	6.98
406.298	7.39
406.76	7.86
407.222	7.84
407.684	7.06
408.146	7.71
408.608	7.55
409.07	6.98
409.532	6.82
409.994	7.71
410.456	7.27
410.917	6.9
411.379	6.89
411.841	7.21
412.303	7.52
412.764	6.4
413.226	6.84
413.687	6.61
414.149	7.13
414.611	7.22
415.072	7.09
415.534	6.9
415.995	7.14
416.457	6.57
416.918	6.82
417.379	6.81
417.841	7.17
418.302	7.21
418.763	6.66
419.225	7.62
419.686	6.98
420.147	8.02
420.608	6.43
421.069	6.71
421.53	7.07
421.991	7.77
422.453	7.44
422.914	7.16
423.375	7.06
423.836	7.28
424.297	7.21
424.757	7.5
425.218	7.53
425.679	7.41
426.14	7.65
426.601	8.19
427.062	7.96
427.522	8.51
427.983	8.84
428.444	8.11
428.904	7.98
429.365	7.09
429.826	9.09
430.286	7.95
430.747	9.95
431.207	9.66
431.668	9.71
432.128	10.05
432.589	8.53
433.049	8.96
433.509	8.42
433.97	8.48
434.43	8.06
434.89	8.73
435.351	10.18
435.811	10.24
436.271	8.83
436.731	9.51
437.191	10.52
437.651	9.69
438.112	9.92
438.572	8.56
439.032	8.69
439.492	11.41
439.952	11.49
440.412	9.32
440.871	10.05
441.331	10.85
441.791	9.4
442.251	10.48
442.711	10.06
443.171	11.1
443.63	9.38
444.09	9.61
444.55	10.77
445.009	9.92
445.469	9.98
445.929	10.25
446.388	11.11
446.848	10.26
447.307	10.15
447.767	10.87
448.226	11.19
448.686	11.1
449.145	9.62
449.604	10.04
450.064	11.43
450.523	10.72
450.982	11.07
451.442	10.14
451.901	11.26
452.36	10.93
452.819	10.91
453.278	10.2
453.737	11.42
454.197	10.19
454.656	10.52
455.115	10.14
455.574	11.04
456.033	12.32
456.492	9.87
456.95	10.65
457.409	11.29
457.868	12.23
458.327	9.86
458.786	10.21
459.245	10.97
459.703	10.23
460.162	11.03
460.621	10.29
461.079	10.35
461.538	10.87
461.997	10.33
462.455	11.76
462.914	10.54
463.372	11.78
463.831	11.7
464.289	10.93
464.748	10.71
465.206	11.84
465.664	10.71
466.123	10.97
466.581	10.26
467.039	11.11
467.497	11.47
467.956	10.81
468.414	11.5
468.872	11.03
469.33	11.9
469.788	10.04
470.246	11.86
470.704	12.12
471.162	11.33
471.62	11.69
472.078	11.27
472.536	11.71
472.994	12.14
473.452	11.24
473.91	11.78
474.368	12.38
474.826	12.45
475.283	9.79
475.741	11.7
476.199	11.47
476.656	12.14
477.114	12.53
477.572	11.61
478.029	11.65
478.487	12.1
478.944	11.48
479.402	11.82
479.859	11.95
480.317	10.82
480.774	12.47
481.232	11.19
481.689	12.79
482.146	13.22
482.604	11.32
483.061	10.93
483.518	11.62
483.975	12.47
484.433	11.48
484.89	11.94
485.347	12.64
485.804	13.88
486.261	10.86
486.718	12.82
487.175	10.78
487.632	12.6
488.089	10.89
488.546	12.47
489.003	11.87
489.46	12.04
489.917	11.9
490.373	12.32
490.83	11.41
491.287	13.21
491.744	12.86
492.2	11.95
492.657	12.68
493.114	13.44
493.57	12.12
494.027	13.28
494.484	11.75
494.94	13.38
495.397	12.19
495.853	12.32
496.31	12.5
496.766	13.94
497.222	12.34
497.679	11.94
498.135	13.12
498.591	13
499.048	12.57
499.504	13.66
499.96	13.61
500.416	15.09
500.872	14.82
501.329	13.19
501.785	11.95
502.241	12.57
502.697	14.07
503.153	13.65
503.609	14.82
504.065	14.72
504.521	14.19
504.977	13
505.432	14.16
505.888	14.99
506.344	13.96
506.8	14.79
507.256	14.39
507.711	14.78
508.167	14.02
508.623	13.62
509.078	15.29
509.534	13.23
509.99	15.66
510.445	14.54
510.901	14.8
511.356	14.88
511.812	15.84
512.267	14.78
512.722	15.16
513.178	15.06
513.633	14.72
514.089	15.81
514.544	14.67
514.999	16.35
515.454	15.26
515.91	14.69
516.365	13.54
516.82	15.01
517.275	14.52
517.73	16.39
518.185	15.83
518.64	15.69
519.095	14.86
519.55	14.87
520.005	15.32
520.46	15.31
520.915	15.96
521.37	15.26
521.825	15.75
522.28	15.23
522.734	14.3
523.189	15.66
523.644	14.79
524.099	15.66
524.553	15.57
525.008	15.63
525.462	16.14
525.917	16.05
526.372	15.34
526.826	15.82
527.281	14.74
527.735	15.34
528.19	14.15
528.644	16.47
529.098	15.94
529.553	14.72
530.007	15.8
530.461	14.08
530.916	14.63
531.37	15.6
531.824	16.11
532.278	14.55
532.732	14.68
533.186	15.93
533.641	14.83
534.095	14.69
534.549	15.5
535.003	14.57
535.457	14.73
535.911	13.87
536.365	15.2
536.818	15.02
537.272	15.02
537.726	15.82
538.18	15.47
538.634	16.35
539.087	14.23
539.541	14.59
539.995	14.92
540.449	16.1
540.902	15.37
541.356	15.92
541.809	14.6
542.263	13.66
542.716	14.88
543.17	14.6
543.623	14.13
544.077	14.8
544.53	14.63
544.984	16.11
545.437	15.69
545.89	15.4
546.344	15.76
546.797	14.58
547.25	15.52
547.703	15.36
548.157	15.59
548.61	15.45
549.063	17.32
549.516	14.6
549.969	14.76
550.422	16.93
550.875	16.67
551.328	14.93
551.781	15.73
552.234	14.85
552.687	16.82
553.14	16.41
553.592	15.49
554.045	15.83
554.498	15.96
554.951	17.03
555.404	16.05
555.856	15.66
556.309	16.23
556.762	15.91
557.214	16.93
557.667	16.25
558.119	16.02
558.572	15.78
559.024	16.58
559.477	16.35
559.929	16.73
560.382	16.47
560.834	16.91
561.286	15.22
561.739	16.42
562.191	16.53
562.643	16.77
563.095	15.83
563.548	14.99
564	16.92
564.452	16.73
564.904	16.88
565.356	16.49
565.808	16.95
566.26	15.82
566.712	16.26
567.164	15.19
567.616	15.42
568.068	16.79
568.52	15.86
568.972	16.89
569.424	16.26
569.876	15.7
570.327	15.62
570.779	16.26
571.231	15.65
571.682	16.14
572.134	15.43
572.586	15.79
573.037	15.47
573.489	15.29
573.941	15.76
574.392	16.43
574.844	15.7
575.295	15.98
575.746	15.61
576.198	16.36
576.649	15.73
577.101	15.78
577.552	16.23
578.003	15.77
578.454	16.09
578.906	15.79
579.357	15.68
579.808	16.69
580.259	16.24
580.71	15.98
581.161	16.88
581.612	16.72
582.064	16.49
582.515	16.53
582.965	15.9
583.416	16.33
583.867	16.65
584.318	16.62
584.769	16.94
585.22	17.66
585.671	17.54
586.122	16.37
586.572	17.11
587.023	18.28
587.474	18.42
587.924	17.88
588.375	18.55
588.826	17.37
589.276	18.2
589.727	18.9
590.177	18.58
590.628	17.81
591.078	18.82
591.529	18.94
591.979	18.23
592.429	18.84
592.88	18.93
593.33	18.95
593.78	19.18
594.231	18.3
594.681	18.89
595.131	18.78
595.581	19.43
596.031	18.69
596.481	18.49
596.932	19.39
597.382	19.68
597.832	19.02
598.282	19.68
598.732	19.48
599.182	19.22
599.632	20.2
600.081	19.81
600.531	17.94
600.981	19.05
601.431	19.05
601.881	19.89
602.33	19.89
602.78	19.59
603.23	18.94
603.679	19.3
604.129	19.23
604.579	20.05
605.028	19.89
605.478	19.39
605.927	19.43
606.377	19.74
606.826	19.23
607.276	20
607.725	18.78
608.175	19.76
608.624	19.38
609.073	19.67
609.522	20.21
609.972	19.92
610.421	20.33
610.87	20.71
611.319	18.98
611.768	19.57
612.218	19.95
612.667	20.74
613.116	19.49
613.565	19.79
614.014	19.52
614.463	20.96
614.912	19.67
615.361	20.48
615.81	19.64
616.258	20.11
616.707	19.73
617.156	20.31
617.605	19.14
618.054	20.51
618.502	20
618.951	19.99
619.4	20.37
619.848	19.86
620.297	19.71
620.745	20.63
621.194	19.85
621.642	19.26
622.091	19.52
622.539	20.5
622.988	20.5
623.436	19.74
623.885	20.49
624.333	19.69
624.781	21.3
625.23	20.22
625.678	20.49
626.126	19.66
626.574	20.13
627.022	20.46
627.471	20.18
627.919	20.55
628.367	20.13
628.815	20.04
629.263	20.82
629.711	20.58
630.159	20.47
630.607	19.79
631.055	20.02
631.503	20.55
631.95	20.22
632.398	20.27
632.846	20.36
633.294	19.91
633.742	20.81
634.189	19.9
634.637	20.86
635.085	20.31
635.532	20.74
635.98	20.82
636.427	20.61
636.875	21.16
637.323	20.99
637.77	20.93
638.217	20.56
638.665	21.01
639.112	20.32
639.56	20.28
640.007	20.61
640.454	20.42
640.902	20.76
641.349	21.16
641.796	20.31
642.243	20.64
642.69	20.51
643.138	19.56
643.585	20.71
644.032	20.77
644.479	20.23
644.926	20.68
645.373	20.62
645.82	20.76
646.267	20.98
646.714	20.78
647.161	20.45
647.607	21.51
648.054	20.55
648.501	20.96
648.948	20.39
649.395	21.11
649.841	21.03
650.288	20.77
650.735	21.3
651.181	21.13
651.628	21.46
652.075	20.82
652.521	20.85
652.968	21.08
653.414	21.65
653.861	22.38
654.307	21.75
654.753	21.15
655.2	21.02
655.646	21.33
656.092	21.07
656.539	21.65
656.985	21.19
657.431	22.01
657.877	20.72
658.324	21.52
658.77	21.42
659.216	21.23
659.662	21.85
660.108	21.43
660.554	21.44
661	21.5
661.446	21.63
661.892	21.87
662.338	21.68
662.784	21.51
663.23	21.88
663.675	21.14
664.121	21.81
664.567	21.99
665.013	21.95
665.458	21.25
665.904	21.95
666.35	21.67
666.795	21.4
667.241	21.13
667.687	22.01
668.132	21.51
668.578	21.84
669.023	21.19
669.469	21.78
669.914	22
670.359	21.34
670.805	22.02
671.25	22
671.695	21.32
672.141	21.8
672.586	21.88
673.031	22.71
673.476	21.55
673.922	22.08
674.367	21.14
674.812	21.57
675.257	21.3
675.702	21.43
676.147	21.6
676.592	21.85
677.037	22.02
677.482	21.9
677.927	21.79
678.372	21.73
678.817	22.02
679.261	21.76
679.706	21.72
680.151	22.73
680.596	22.38
681.04	22.38
681.485	22.24
681.93	22.08
682.374	22.08
682.819	21.46
683.264	21.27
683.708	21.57
684.153	21.83
684.597	21.99
685.042	21.79
685.486	21.65
685.93	21.76
686.375	21.61
686.819	21.78
687.263	21.99
687.708	21.63
688.152	22.15
688.596	22.1
689.04	22.31
689.485	21.98
689.929	21.69
690.373	21.77
690.817	22.43
691.261	21.88
691.705	21.89
692.149	22.46
692.593	22.07
693.037	22.2
693.481	21.94
693.925	21.87
694.369	22.06
694.812	21.92
695.256	21.52
695.7	22.22
696.144	22.13
696.587	21.67
697.031	22.42
697.475	22.23
697.918	22.13
698.362	22.38
698.806	22.28
699.249	22.08
699.693	22.62
700.136	22.22
700.58	22.47
701.023	22.09
701.466	22.66
701.91	22.48
702.353	22.33
702.796	22.91
703.24	21.8
703.683	22.27
704.126	22.74
704.569	22.5
705.013	22.42
705.456	22.52
705.899	22.54
706.342	22.63
706.785	21.91
707.228	22.58
707.671	22.22
708.114	22.74
708.557	21.87
709	22.78
709.443	21.92
709.886	21.92
710.328	22.34
710.771	22.62
711.214	22.89
711.657	22.23
712.099	22.09
712.542	22.14
712.985	21.82
713.427	22.56
713.87	22.26
714.313	22.59
714.755	22.75
715.198	22.79
715.64	22.41
716.083	22.92
716.525	22.12
716.967	23.15
717.41	22.73
717.852	22.83
718.295	22.41
718.737	22.04
719.179	22.51
719.621	22.86
720.063	22.28
720.506	22.59
720.948	23.16
721.39	22.51
721.832	22.89
722.274	22.88
722.716	23.05
723.158	21.65
723.6	22.96
724.042	22.66
724.484	22.43
724.926	22.73
725.368	22.76
725.81	22.5
726.251	22.11
726.693	22.39
727.135	22.08
727.577	22.74
728.018	22.37
728.46	22.1
728.902	22.98
729.343	22.29
729.785	22.75
730.226	22.46
730.668	22.27
731.109	21.99
731.551	22.94
731.992	22.34
732.434	22.35
732.875	22.56
733.316	22.73
733.758	21.99
734.199	22.22
734.64	22.58
735.081	22.11
735.523	22.54
735.964	22.39
736.405	23
736.846	22.97
737.287	22.04
737.728	22.4
738.169	22.36
738.61	22.61
739.051	22.35
739.492	22.1
739.933	22.7
740.374	22.25
740.815	22.47
741.256	21.97
741.696	22.25
742.137	22.95
742.578	22.49
743.019	22.69
743.459	22.84
743.9	23.28
744.341	22.56
744.781	22.61
745.222	22.8
745.662	22.42
746.103	22.84
746.543	22.54
746.984	23.34
747.424	22.67
747.865	22.61
748.305	22.65
748.745	22.45
749.186	23.13
749.626	22.51
750.066	22.76
750.506	22.81
750.947	21.95
751.387	23.16
751.827	23.11
752.267	22.96
752.707	22.7
753.147	23.53
753.587	23.67
754.027	22.41
754.467	23.01
754.907	23.09
755.347	22.46
755.787	22.54
756.227	22.75
756.667	23.27
757.107	22.9
757.546	22.57
757.986	22.91
758.426	22.93
758.865	22.59
759.305	22.44
759.745	23.05
760.184	22.94
760.624	22.72
761.063	23.27
761.503	22.77
761.943	22.88
762.382	22.94
762.821	23.06
763.261	23.19
763.7	23.12
764.14	22.76
764.579	23.17
765.018	22.44
765.457	23.13
765.897	22.58
766.336	22.78
766.775	22.91
767.214	22.94
767.653	22.86
768.092	22.5
768.531	22.88
768.97	22.45
769.409	22.84
769.848	23.66
770.287	22.73
770.726	23.42
771.165	23.03
771.604	23.1
772.043	23.24
772.482	22.89
772.92	23.15
773.359	23.04
773.798	23.23
774.237	22.84
774.675	23.14
775.114	23.14
775.553	23.29
775.991	23.13
776.43	23.24
776.868	23.54
777.307	23.45
777.745	23.01
778.184	22.96
778.622	22.81
779.06	23.03
779.499	23.13
779.937	22.83
780.375	22.67
780.814	23.04
781.252	23.21
781.69	23.36
782.128	22.64
782.566	22.75
783.004	23.03
783.443	23.08
783.881	23.19
784.319	23.69
784.757	23.22
785.195	23.21
785.633	22.68
786.071	23.31
786.508	22.94
786.946	22.96
787.384	23.25
787.822	23.35
788.26	22.92
788.697	23.31
789.135	23.44
789.573	23.06
790.011	23.36
790.448	23.32
790.886	23.17
791.323	23.09
791.761	23.06
792.198	23.42
792.636	23.51
793.073	22.93
793.511	22.9
793.948	23.7
794.386	23.23
794.823	23.53
795.26	23.25
795.698	22.64
796.135	23.09
796.572	23.26
797.009	22.66
797.446	23.45
797.884	23.33
798.321	22.83
798.758	23.35
799.195	23.06
799.632	23.07
800.069	23.2
800.506	23.35
800.943	23.27
801.38	23.19
801.817	23.24
802.254	23.09
802.69	23.4
803.127	23.32
803.564	23.19
804.001	23.25
804.438	22.94
804.874	23.03
805.311	23.25
805.748	23.36
806.184	23.33
806.621	23.26
807.057	23.16
807.494	23.4
807.93	23.58
808.367	22.95
808.803	23.27
809.24	23.16
809.676	23.65
810.112	23.42
810.549	23.39
810.985	23.54
811.421	23.18
811.857	23.35
812.294	23.49
812.73	23.28
813.166	23.34
813.602	23.37
814.038	23.19
814.474	23.48
814.91	23.64
815.346	23.39
815.782	23.32
816.218	23.33
816.654	23.55
817.09	23.5
817.526	23.67
817.962	23.28
818.398	23.3
818.833	24
