Data from JCR0018_SupralabialBlack_Reflection_00003.txt Node
Date: Thu Jul 23 16:35:40 ACST 2020
User: Stacey Dix
Spectrometer: MAYP113282
Scans to average: 1
Trigger mode: 0
Integration Time (sec): 1.000000E-1
Electric dark correction enabled: true
Boxcar width: 0
XAxis mode: Wavelengths
Number of Pixels in Spectrum: 2068
>>>>>Begin Spectral Data<<<<<
198.791	-266.67
199.266	66.67
199.74	-16.67
200.215	0
200.69	-0.46
201.164	-8.92
201.639	-1.47
202.114	15.77
202.588	20.07
203.063	-5.04
203.537	1.52
204.012	21.08
204.486	11.78
204.961	22.41
205.435	-1.28
205.909	-0.27
206.384	2.01
206.858	11.84
207.332	6.82
207.807	-4.48
208.281	15.42
208.755	3.46
209.229	2.34
209.703	16.78
210.177	-10.62
210.651	-9.32
211.126	7.9
211.6	3.73
212.074	10.59
212.548	12.53
213.021	7.63
213.495	11.82
213.969	8.28
214.443	-4.12
214.917	5.59
215.391	6.6
215.864	-0.78
216.338	-1.84
216.812	2.36
217.286	-13.23
217.759	9.9
218.233	7.68
218.706	11.46
219.18	12.06
219.654	-1.84
220.127	7.54
220.6	1.02
221.074	2.99
221.547	2.53
222.021	2.72
222.494	1.51
222.967	5.15
223.441	-2.05
223.914	7.49
224.387	-1.58
224.86	8.62
225.334	-1.39
225.807	3.95
226.28	0.3
226.753	5.4
227.226	0.43
227.699	3.13
228.172	2.12
228.645	1.2
229.118	3.71
229.591	0.45
230.064	1.13
230.537	2.09
231.01	2.38
231.482	0.65
231.955	1.66
232.428	1.21
232.901	-0.8
233.373	1.04
233.846	0.97
234.319	1.2
234.791	-0.24
235.264	0.18
235.736	0.3
236.209	0.99
236.681	1.29
237.154	0.57
237.626	1.07
238.099	0.09
238.571	1.98
239.044	1.44
239.516	1.11
239.988	0.85
240.46	1.02
240.933	-0.44
241.405	0.72
241.877	1.24
242.349	1.49
242.821	1.13
243.293	0.54
243.765	1.46
244.237	1.21
244.71	0.6
245.181	0.98
245.653	0.76
246.125	1.22
246.597	0.85
247.069	2.3
247.541	1.19
248.013	0.87
248.485	1.87
248.956	0.84
249.428	0.74
249.9	1.19
250.371	1.95
250.843	0.79
251.315	0.58
251.786	1.16
252.258	0.46
252.729	0.66
253.201	0.68
253.672	0.55
254.144	0.5
254.615	0.43
255.086	0.66
255.558	0.49
256.029	0.25
256.5	1
256.972	0.22
257.443	0.81
257.914	0.92
258.385	0.88
258.856	0.92
259.327	0.77
259.799	1.03
260.27	0.97
260.741	0.45
261.212	0.04
261.683	0.65
262.154	0.55
262.624	0.5
263.095	0.93
263.566	1.34
264.037	0.56
264.508	0.3
264.979	0.64
265.449	0.43
265.92	0.88
266.391	0.65
266.861	0.39
267.332	0.78
267.803	0.68
268.273	1.2
268.744	0.9
269.214	0.2
269.685	0.52
270.155	0.61
270.626	1.09
271.096	0.02
271.566	0.96
272.037	0.89
272.507	1.61
272.977	-0.12
273.448	-0.19
273.918	1.42
274.388	0.7
274.858	0.25
275.328	0.36
275.798	0.48
276.268	0.39
276.738	0.65
277.208	0.14
277.678	1.15
278.148	0.41
278.618	-0.28
279.088	0.77
279.558	0.8
280.028	-0.23
280.498	0.23
280.968	0.75
281.437	0.55
281.907	0.79
282.377	0.05
282.847	0.48
283.316	0.78
283.786	0.23
284.255	-0.01
284.725	0.46
285.194	0.51
285.664	0.76
286.133	-0.24
286.603	0.39
287.072	0.57
287.542	0.36
288.011	0.33
288.48	-0.27
288.95	1.09
289.419	0.27
289.888	0.94
290.357	1.06
290.827	0.13
291.296	0.08
291.765	0.7
292.234	0.72
292.703	0.22
293.172	-0.37
293.641	0.74
294.11	0.63
294.579	1.29
295.048	0.64
295.517	0.46
295.986	-0.01
296.455	0.64
296.923	0.59
297.392	0.57
297.861	-0.07
298.33	0.45
298.798	0.49
299.267	1.12
299.736	0.75
300.204	-0.38
300.673	0.21
301.141	0.64
301.61	0.67
302.079	-0.04
302.547	0.9
303.015	1.06
303.484	0.86
303.952	0.42
304.421	0.55
304.889	1.37
305.357	0.65
305.825	0.74
306.294	0.45
306.762	0.65
307.23	0.4
307.698	1.23
308.166	-0.11
308.634	0.02
309.103	0.7
309.571	0.84
310.039	1.13
310.507	0.44
310.975	0.7
311.442	0.9
311.91	0.34
312.378	0.7
312.846	0.64
313.314	0.28
313.782	0.67
314.249	0.62
314.717	0.94
315.185	0.74
315.652	0.53
316.12	0.55
316.588	1.03
317.055	-0.1
317.523	0.47
317.99	1.13
318.458	0.65
318.925	0.62
319.393	0.59
319.86	0.69
320.328	0.86
320.795	0.08
321.262	0.86
321.73	1.02
322.197	1.17
322.664	0.55
323.131	0.87
323.598	0.75
324.066	1.62
324.533	1.39
325	0.99
325.467	1.51
325.934	1.75
326.401	1.16
326.868	1.26
327.335	1.94
327.802	1.65
328.269	2.1
328.735	1.4
329.202	1.65
329.669	2.56
330.136	1.65
330.603	2.05
331.069	1.8
331.536	3.58
332.003	2.69
332.469	3.2
332.936	2.8
333.402	2.35
333.869	3.13
334.336	2.89
334.802	2.53
335.268	2.75
335.735	2.46
336.201	2.72
336.668	3.02
337.134	3.18
337.6	2.6
338.067	3.25
338.533	3.1
338.999	3.54
339.465	2.99
339.931	3.22
340.398	3.05
340.864	3.11
341.33	3.33
341.796	3.4
342.262	2.72
342.728	3.27
343.194	2.96
343.66	3.34
344.126	4.17
344.592	3.13
345.057	3.31
345.523	3.35
345.989	3.54
346.455	3.03
346.921	3.73
347.386	3.39
347.852	2.96
348.318	3.51
348.783	2.99
349.249	3.52
349.714	3.84
350.18	3.82
350.645	2.7
351.111	3.66
351.576	3.04
352.042	3.72
352.507	2.92
352.973	3
353.438	3.29
353.903	3.23
354.369	3.17
354.834	2.71
355.299	3.98
355.764	2.9
356.229	3.13
356.695	2.99
357.16	3.37
357.625	2.89
358.09	3.79
358.555	3.44
359.02	3.05
359.485	2.7
359.95	3.27
360.415	3.48
360.879	3.23
361.344	2.68
361.809	2.76
362.274	3
362.739	2.49
363.203	4.17
363.668	3.27
364.133	2.97
364.597	3.36
365.062	2.75
365.527	3.24
365.991	2.93
366.456	3.23
366.92	3.19
367.385	3.13
367.849	3.24
368.314	2.77
368.778	2.78
369.242	2.87
369.707	2.71
370.171	4.17
370.635	2.92
371.1	3.27
371.564	3.6
372.028	3.75
372.492	3.62
372.956	3.24
373.42	3.33
373.884	3.36
374.348	3.47
374.812	2.54
375.276	3.7
375.74	2.84
376.204	4.18
376.668	3.37
377.132	2.41
377.596	3.35
378.06	3.3
378.524	2.14
378.987	3.01
379.451	3.29
379.915	2.66
380.378	3.01
380.842	2.73
381.306	3.17
381.769	2.93
382.233	3.58
382.696	2.75
383.16	3.23
383.623	3.53
384.087	3.09
384.55	3.79
385.014	3.09
385.477	3.59
385.94	2.96
386.404	3.26
386.867	2.72
387.33	3.41
387.793	3.38
388.256	3.08
388.72	3.53
389.183	3.01
389.646	4.15
390.109	2.77
390.572	3.55
391.035	3.14
391.498	3.6
391.961	2.95
392.424	3.52
392.887	3.27
393.35	3.47
393.812	3.36
394.275	3.79
394.738	2.93
395.201	3.61
395.664	3.29
396.126	3.01
396.589	3.54
397.052	3.35
397.514	3.7
397.977	3
398.439	3.65
398.902	2.89
399.364	2.59
399.827	3.54
400.289	3.51
400.752	2.97
401.214	2.64
401.676	3.23
402.139	2.4
402.601	3.34
403.063	3.29
403.525	3.4
403.988	3.49
404.45	3.03
404.912	3.39
405.374	3.11
405.836	3.36
406.298	3.59
406.76	2.73
407.222	3.39
407.684	3.34
408.146	3.48
408.608	3.23
409.07	3.06
409.532	3.17
409.994	3.09
410.456	2.66
410.917	3.54
411.379	3.32
411.841	3.17
412.303	3.09
412.764	2.54
413.226	2.9
413.687	3.29
414.149	3.39
414.611	3.03
415.072	2.49
415.534	2.93
415.995	2.97
416.457	2.79
416.918	2.84
417.379	3.09
417.841	3.36
418.302	3.38
418.763	3.17
419.225	3.34
419.686	2.88
420.147	3.37
420.608	2.91
421.069	2.71
421.53	2.74
421.991	3.19
422.453	2.95
422.914	3.05
423.375	2.86
423.836	3.1
424.297	3.04
424.757	3.47
425.218	3.24
425.679	2.71
426.14	3.43
426.601	3.53
427.062	3.39
427.522	2.45
427.983	2.98
428.444	3.37
428.904	3.17
429.365	3.17
429.826	2.82
430.286	3.92
430.747	3.79
431.207	2.43
431.668	2.69
432.128	3.86
432.589	3.09
433.049	2.66
433.509	3.48
433.97	3.47
434.43	3.84
434.89	2.75
435.351	3.46
435.811	3.7
436.271	3.08
436.731	3.9
437.191	4.01
437.651	3.23
438.112	3.49
438.572	2.6
439.032	2.16
439.492	3.41
439.952	3.53
440.412	3.23
440.871	3.13
441.331	3.98
441.791	4.41
442.251	4.05
442.711	3.89
443.171	5.22
443.63	3.67
444.09	3.4
444.55	3.97
445.009	3.33
445.469	4.26
445.929	3.42
446.388	5.21
446.848	3.36
447.307	3.92
447.767	4.03
448.226	3.48
448.686	3.42
449.145	4.13
449.604	3.73
450.064	3.72
450.523	3.8
450.982	3.83
451.442	3.73
451.901	3.34
452.36	4.16
452.819	3.77
453.278	3.86
453.737	4.21
454.197	4.39
454.656	3.38
455.115	3.06
455.574	3.7
456.033	4.72
456.492	3.55
456.95	4.44
457.409	4.02
457.868	3.98
458.327	3.31
458.786	4.46
459.245	2.6
459.703	2.83
460.162	4.46
460.621	3.71
461.079	3.19
461.538	3.44
461.997	4.17
462.455	3.62
462.914	3.78
463.372	4.14
463.831	3.8
464.289	3.71
464.748	3.63
465.206	4.61
465.664	3.84
466.123	3.56
466.581	3.51
467.039	4.57
467.497	2.73
467.956	4.04
468.414	2.71
468.872	5.08
469.33	3.99
469.788	4.03
470.246	4.05
470.704	5.45
471.162	3.15
471.62	4.32
472.078	3.14
472.536	4.93
472.994	4.7
473.452	4.08
473.91	4.41
474.368	3.92
474.826	4.54
475.283	2.71
475.741	3.74
476.199	4.73
476.656	4.3
477.114	4.15
477.572	4.14
478.029	3.13
478.487	3.66
478.944	3.73
479.402	3.9
479.859	3.57
480.317	2.79
480.774	5.12
481.232	3.51
481.689	3.8
482.146	5.19
482.604	5.22
483.061	3.38
483.518	3.86
483.975	5.8
484.433	3.48
484.89	3.79
485.347	4.7
485.804	3.52
486.261	3.26
486.718	4.48
487.175	3.77
487.632	4.59
488.089	3.34
488.546	4.68
489.003	4.66
489.46	4.57
489.917	3.99
490.373	4.8
490.83	3.96
491.287	4.27
491.744	4.95
492.2	3.55
492.657	3.85
493.114	4.21
493.57	3.74
494.027	4.87
494.484	3.63
494.94	3.76
495.397	3.79
495.853	5.04
496.31	4.27
496.766	3.8
497.222	5.3
497.679	4.52
498.135	4.57
498.591	4.13
499.048	4.78
499.504	4.07
499.96	4.58
500.416	6.04
500.872	4.91
501.329	5.56
501.785	4.13
502.241	3.92
502.697	3.6
503.153	4.59
503.609	5.71
504.065	4.1
504.521	4.66
504.977	4.25
505.432	4.81
505.888	5.82
506.344	4.01
506.8	6.31
507.256	5.29
507.711	5.76
508.167	4.81
508.623	4.92
509.078	5.12
509.534	4.56
509.99	4.91
510.445	4.78
510.901	5.67
511.356	5.29
511.812	5.47
512.267	5.6
512.722	4.96
513.178	5.93
513.633	5.46
514.089	5.07
514.544	5.31
514.999	5.93
515.454	5.24
515.91	6.31
516.365	4.64
516.82	5.11
517.275	5.72
517.73	5.85
518.185	4.85
518.64	5.73
519.095	5.42
519.55	6.04
520.005	5.96
520.46	6.72
520.915	5.14
521.37	6.23
521.825	5.12
522.28	6.46
522.734	5.17
523.189	5.88
523.644	5.96
524.099	6.3
524.553	6.23
525.008	5.66
525.462	6.31
525.917	5.62
526.372	5.95
526.826	5.2
527.281	5.48
527.735	5
528.19	4.78
528.644	5.41
529.098	5.61
529.553	6.06
530.007	6.65
530.461	4.71
530.916	6
531.37	5.48
531.824	5.26
532.278	5.48
532.732	5.1
533.186	6.39
533.641	5.54
534.095	5.85
534.549	7.28
535.003	5.31
535.457	5.83
535.911	5.64
536.365	6.16
536.818	6.85
537.272	5.1
537.726	5.59
538.18	6.63
538.634	5.66
539.087	5.95
539.541	6.52
539.995	6.65
540.449	6.93
540.902	5.98
541.356	6.42
541.809	5.38
542.263	4.56
542.716	6.48
543.17	5.28
543.623	5.94
544.077	6.2
544.53	5.32
544.984	6.96
545.437	5.3
545.89	5.53
546.344	5.83
546.797	5.54
547.25	5.78
547.703	5.56
548.157	7.05
548.61	5.43
549.063	6.94
549.516	5.72
549.969	6.56
550.422	5.88
550.875	5.78
551.328	6.57
551.781	6.29
552.234	6.13
552.687	6.29
553.14	6.33
553.592	5.9
554.045	6.09
554.498	5.99
554.951	6.25
555.404	6.68
555.856	5.88
556.309	6.4
556.762	5.72
557.214	6.79
557.667	6.92
558.119	6.3
558.572	6.02
559.024	6.49
559.477	7.09
559.929	7.82
560.382	6.96
560.834	6.6
561.286	6.43
561.739	6.39
562.191	7.02
562.643	6.27
563.095	6.57
563.548	6.56
564	7.07
564.452	6.75
564.904	7.33
565.356	6.93
565.808	6.98
566.26	6.69
566.712	6.7
567.164	6.69
567.616	6.25
568.068	6.45
568.52	6.83
568.972	7.6
569.424	6.41
569.876	6.92
570.327	7.05
570.779	7.13
571.231	7.08
571.682	7.39
572.134	6.52
572.586	6.89
573.037	6.4
573.489	7.53
573.941	6.3
574.392	7.15
574.844	6.82
575.295	5.87
575.746	7.51
576.198	7.5
576.649	6.75
577.101	7.02
577.552	7.32
578.003	5.94
578.454	7.48
578.906	6.67
579.357	6.64
579.808	7.23
580.259	6.84
580.71	7.19
581.161	7.28
581.612	6.98
582.064	7.57
582.515	6.47
582.965	7.42
583.416	7.1
583.867	7.72
584.318	7.02
584.769	7.68
585.22	7.19
585.671	7.56
586.122	6.9
586.572	6.98
587.023	7.27
587.474	7.16
587.924	7.85
588.375	7.34
588.826	6.96
589.276	8.09
589.727	7.68
590.177	7.19
590.628	7.21
591.078	7.62
591.529	7.81
591.979	7.28
592.429	7.19
592.88	7.5
593.33	7.06
593.78	8.2
594.231	7.34
594.681	7.42
595.131	7.62
595.581	8.23
596.031	6.21
596.481	8.49
596.932	7.43
597.382	7.8
597.832	7.22
598.282	7.98
598.732	7.88
599.182	7.64
599.632	8.31
600.081	7.09
600.531	7.68
600.981	7.98
601.431	8.46
601.881	7.71
602.33	7.56
602.78	8.35
603.23	7.53
603.679	8.24
604.129	7.93
604.579	8.62
605.028	7.32
605.478	8.15
605.927	8.13
606.377	8.18
606.826	7.6
607.276	7.83
607.725	8.64
608.175	8.39
608.624	7.65
609.073	8.3
609.522	7.97
609.972	8.27
610.421	8.07
610.87	7.82
611.319	8.47
611.768	7.84
612.218	8.15
612.667	8.56
613.116	8.51
613.565	8.45
614.014	7.96
614.463	8.43
614.912	7.99
615.361	8.26
615.81	8.85
616.258	7.45
616.707	8.24
617.156	8.92
617.605	8.3
618.054	8.71
618.502	9.03
618.951	8.17
619.4	8.24
619.848	8.42
620.297	8.08
620.745	8.21
621.194	8.6
621.642	8.48
622.091	8.65
622.539	8.56
622.988	8.18
623.436	8.62
623.885	9.09
624.333	8.95
624.781	8.97
625.23	8.98
625.678	8.83
626.126	8.44
626.574	8.34
627.022	8.73
627.471	8.3
627.919	8.39
628.367	8.53
628.815	8.05
629.263	8.52
629.711	8.77
630.159	8.62
630.607	9.17
631.055	8.99
631.503	8.88
631.95	8.28
632.398	8.85
632.846	8.83
633.294	8.64
633.742	8.54
634.189	8.64
634.637	9.21
635.085	8.62
635.532	9.07
635.98	9
636.427	8.7
636.875	9.18
637.323	9
637.77	8.7
638.217	8.95
638.665	9.23
639.112	8.6
639.56	8.7
640.007	8.56
640.454	9.46
640.902	9.37
641.349	9.43
641.796	9.42
642.243	8.93
642.69	9.42
643.138	9.23
643.585	9.04
644.032	9.12
644.479	8.95
644.926	8.97
645.373	9.45
645.82	9.09
646.267	9.31
646.714	9.32
647.161	9.25
647.607	9.18
648.054	9.53
648.501	8.56
648.948	9.12
649.395	9.54
649.841	9.7
650.288	9.32
650.735	9.83
651.181	9.24
651.628	9.84
652.075	9.68
652.521	9.02
652.968	9.74
653.414	9.26
653.861	9.62
654.307	9.86
654.753	9.71
655.2	9.74
655.646	9.06
656.092	9.93
656.539	9.95
656.985	9.7
657.431	9.6
657.877	9.52
658.324	9.52
658.77	9.71
659.216	9.68
659.662	9.74
660.108	9.9
660.554	10.26
661	9.71
661.446	9.77
661.892	10.45
662.338	9.65
662.784	9.7
663.23	9.79
663.675	9.49
664.121	9.8
664.567	9.69
665.013	9.71
665.458	9.62
665.904	9.94
666.35	9.5
666.795	10.44
667.241	10.18
667.687	10
668.132	10.13
668.578	10.2
669.023	9.98
669.469	9.5
669.914	10.19
670.359	9.44
670.805	9.75
671.25	9.84
671.695	9.51
672.141	9.84
672.586	10.4
673.031	10.07
673.476	9.7
673.922	10.76
674.367	9.77
674.812	9.6
675.257	10.15
675.702	9.63
676.147	10.33
676.592	10.74
677.037	10.34
677.482	9.88
677.927	10.61
678.372	10.2
678.817	10.52
679.261	10.09
679.706	10.45
680.151	10.67
680.596	10.41
681.04	10.63
681.485	10.07
681.93	10.48
682.374	10.12
682.819	10.21
683.264	10.31
683.708	10.25
684.153	10.69
684.597	10.35
685.042	10.45
685.486	10.2
685.93	10.57
686.375	9.91
686.819	10.55
687.263	10.42
687.708	10.5
688.152	10.71
688.596	10.73
689.04	10.43
689.485	10.64
689.929	11.18
690.373	10.41
690.817	10.34
691.261	10.52
691.705	10.64
692.149	10.65
692.593	10.37
693.037	10.58
693.481	10.76
693.925	10.79
694.369	11.11
694.812	10.81
695.256	10.64
695.7	10.49
696.144	10.97
696.587	10.51
697.031	10.55
697.475	10.68
697.918	10.51
698.362	10.85
698.806	10.72
699.249	10.77
699.693	10.88
700.136	11.22
700.58	11.05
701.023	10.51
701.466	11.12
701.91	10.92
702.353	11.09
702.796	10.83
703.24	10.9
703.683	11.32
704.126	11.04
704.569	11.26
705.013	11.04
705.456	11
705.899	10.9
706.342	11.46
706.785	11.08
707.228	10.96
707.671	10.93
708.114	10.95
708.557	11.14
709	11.28
709.443	11.05
709.886	11.06
710.328	10.93
710.771	10.59
711.214	11.44
711.657	11.33
712.099	10.89
712.542	11.17
712.985	11.25
713.427	11.19
713.87	11.07
714.313	11.17
714.755	11
715.198	11.72
715.64	11.69
716.083	11.58
716.525	11.51
716.967	11.43
717.41	11.6
717.852	11.75
718.295	11.7
718.737	11.25
719.179	11.35
719.621	11.29
720.063	11.59
720.506	11.37
720.948	11.63
721.39	11.21
721.832	11.96
722.274	11.6
722.716	12.16
723.158	11.73
723.6	11.31
724.042	11.26
724.484	11.36
724.926	11.9
725.368	11.61
725.81	11.35
726.251	12.2
726.693	11.57
727.135	11.26
727.577	12.12
728.018	11.51
728.46	11.49
728.902	11.73
729.343	11.89
729.785	11.63
730.226	11.73
730.668	11.79
731.109	11.71
731.551	11.44
731.992	11.76
732.434	12.47
732.875	11.86
733.316	11.74
733.758	11.64
734.199	11.86
734.64	12.35
735.081	12
735.523	11.66
735.964	12.27
736.405	12.05
736.846	11.95
737.287	12.35
737.728	12.04
738.169	12.13
738.61	11.86
739.051	12.14
739.492	12.01
739.933	12.33
740.374	12.22
740.815	12.19
741.256	11.69
741.696	11.92
742.137	12.35
742.578	12.13
743.019	12.1
743.459	11.85
743.9	12.2
744.341	12.02
744.781	12.28
745.222	12.03
745.662	12.1
746.103	12.63
746.543	11.92
746.984	12.76
747.424	12.23
747.865	12.28
748.305	12.18
748.745	12.42
749.186	12.36
749.626	11.77
750.066	12.29
750.506	12.66
750.947	12.25
751.387	12.39
751.827	12.72
752.267	12.8
752.707	12.57
753.147	12.24
753.587	12.93
754.027	12.4
754.467	12.44
754.907	12.43
755.347	12.23
755.787	12.21
756.227	12.6
756.667	13.19
757.107	12.92
757.546	12.96
757.986	12.63
758.426	12.61
758.865	12.6
759.305	12.98
759.745	12.93
760.184	12.93
760.624	12.95
761.063	12.88
761.503	12.82
761.943	12.88
762.382	12.71
762.821	13.11
763.261	13.1
763.7	13.21
764.14	12.77
764.579	13.08
765.018	13.17
765.457	12.88
765.897	13.03
766.336	12.92
766.775	13.41
767.214	13.25
767.653	12.9
768.092	12.68
768.531	13.39
768.97	12.86
769.409	13.08
769.848	13.25
770.287	13.4
770.726	13.22
771.165	13.04
771.604	12.99
772.043	12.84
772.482	13.51
772.92	13.34
773.359	13.15
773.798	13.27
774.237	13.06
774.675	13.78
775.114	13.37
775.553	13.34
775.991	13.25
776.43	13.43
776.868	13.08
777.307	13.44
777.745	13.03
778.184	13.45
778.622	13.53
779.06	13.61
779.499	13.78
779.937	13.56
780.375	13.65
780.814	13.75
781.252	13.4
781.69	13.56
782.128	13.28
782.566	13.66
783.004	14.04
783.443	13.44
783.881	13.5
784.319	13.96
784.757	13.63
785.195	13.61
785.633	13.5
786.071	14.18
786.508	13.44
786.946	13.59
787.384	13.77
787.822	13.95
788.26	13.6
788.697	13.59
789.135	13.84
789.573	14.03
790.011	13.94
790.448	13.88
790.886	13.96
791.323	14.12
791.761	13.46
792.198	14.04
792.636	13.73
793.073	14.37
793.511	13.85
793.948	14.29
794.386	14.25
794.823	14.17
795.26	13.55
795.698	14.27
796.135	13.89
796.572	14.03
797.009	13.83
797.446	14.18
797.884	14.28
798.321	14.13
798.758	14.15
799.195	13.91
799.632	13.96
800.069	14.04
800.506	14.33
800.943	14.28
801.38	13.9
801.817	14.36
802.254	13.85
802.69	14.62
803.127	14.58
803.564	14.47
804.001	14.46
804.438	14.48
804.874	14.19
805.311	14.38
805.748	14.57
806.184	14.7
806.621	14.11
807.057	14.51
807.494	14.81
807.93	14.48
808.367	14.51
808.803	14.78
809.24	14.7
809.676	14.55
810.112	14.74
810.549	14.27
810.985	14.48
811.421	14.63
811.857	14.69
812.294	14.76
812.73	14.68
813.166	14.5
813.602	14.76
814.038	14.58
814.474	14.57
814.91	14.93
815.346	14.8
815.782	14.73
816.218	14.78
816.654	15.02
817.09	14.68
817.526	14.67
817.962	14.57
818.398	14.81
818.833	15.13
819.269	14.81
819.705	14.56
820.141	15.02
820.576	14.87
821.012	15.25
821.447	15.11
821.883	15.33
822.319	14.9
822.754	15.07
823.19	15.2
823.625	14.93
824.061	14.97
824.496	15.33
824.931	14.86
825.367	15.12
825.802	14.89
826.237	15.26
826.673	14.97
827.108	15.08
827.543	15.23
827.978	14.96
828.413	15.43
828.849	15.2
829.284	15.5
829.719	15.03
830.154	15.42
830.589	15.46
831.024	15.49
831.459	15.28
831.894	15.25
832.329	15.56
832.763	15.46
833.198	15.19
833.633	15.27
834.068	15.5
