Data from JCR0018_SupralabialWhite_Reflection_00003.txt Node
Date: Thu Jul 23 16:35:16 ACST 2020
User: Stacey Dix
Spectrometer: MAYP113282
Scans to average: 1
Trigger mode: 0
Integration Time (sec): 1.000000E-1
Electric dark correction enabled: true
Boxcar width: 0
XAxis mode: Wavelengths
Number of Pixels in Spectrum: 2068
>>>>>Begin Spectral Data<<<<<
198.791	-425
199.266	50
199.74	175
200.215	0
200.69	25.34
201.164	0.7
201.639	9.34
202.114	8.48
202.588	25.27
203.063	15.7
203.537	5
204.012	21.79
204.486	15.66
204.961	7.14
205.435	-4.33
205.909	8.47
206.384	7.14
206.858	11.68
207.332	15.35
207.807	1.26
208.281	18.28
208.755	-5.56
209.229	6.58
209.703	21.24
210.177	6.3
210.651	-5.24
211.126	13.7
211.6	9.54
212.074	16.55
212.548	14.85
213.021	12.75
213.495	14.54
213.969	6.86
214.443	-10.39
214.917	17.63
215.391	9.64
215.864	3.2
216.338	10.22
216.812	5.62
217.286	-7.29
217.759	12.76
218.233	14.61
218.706	1.56
219.18	2.64
219.654	11.7
220.127	8.58
220.6	0.57
221.074	13.28
221.547	4.24
222.021	2.66
222.494	4.05
222.967	8.51
223.441	-3.77
223.914	7.45
224.387	3.61
224.86	6.06
225.334	4.06
225.807	3.91
226.28	3.53
226.753	0.6
227.226	3.15
227.699	4.77
228.172	1.78
228.645	4.93
229.118	4.82
229.591	2.78
230.064	4.62
230.537	0.89
231.01	2.68
231.482	1.52
231.955	1.36
232.428	2.78
232.901	-0.3
233.373	1.02
233.846	1.26
234.319	2.2
234.791	0.62
235.264	0.84
235.736	0.74
236.209	0.72
236.681	1.4
237.154	1.85
237.626	0.37
238.099	0.35
238.571	2.97
239.044	2.28
239.516	0.76
239.988	1.03
240.46	2.33
240.933	1.53
241.405	0.53
241.877	0.65
242.349	1.57
242.821	1.91
243.293	0.21
243.765	1.59
244.237	1.29
244.71	2.34
245.181	1.2
245.653	1.62
246.125	1.58
246.597	1.04
247.069	1.06
247.541	1.66
248.013	1.29
248.485	1.17
248.956	1.28
249.428	1.03
249.9	1.99
250.371	1.68
250.843	1.62
251.315	1.1
251.786	2.03
252.258	0.59
252.729	1.03
253.201	1.49
253.672	1.14
254.144	0.36
254.615	0.82
255.086	1.06
255.558	0.93
256.029	0.86
256.5	1.07
256.972	0.65
257.443	0.75
257.914	0.96
258.385	1.11
258.856	1.22
259.327	0.92
259.799	0.65
260.27	1.2
260.741	1.24
261.212	0.45
261.683	0.8
262.154	0.83
262.624	1.15
263.095	0.78
263.566	1.29
264.037	0.66
264.508	0.58
264.979	0.87
265.449	0.59
265.92	1.11
266.391	1.1
266.861	1.04
267.332	0.67
267.803	0.93
268.273	1.02
268.744	1.24
269.214	0.88
269.685	0.9
270.155	0.6
270.626	1.28
271.096	1.33
271.566	1.53
272.037	0.78
272.507	1.04
272.977	-0.13
273.448	0.34
273.918	1.34
274.388	1.32
274.858	0.83
275.328	1.42
275.798	1.44
276.268	1.05
276.738	0.35
277.208	0.84
277.678	0.56
278.148	0.59
278.618	-0.06
279.088	0.69
279.558	0.8
280.028	0.63
280.498	0.54
280.968	0.98
281.437	0.44
281.907	0.84
282.377	0.53
282.847	0.32
283.316	1.23
283.786	0.2
284.255	0.55
284.725	0.45
285.194	0.85
285.664	0.93
286.133	0.34
286.603	1.05
287.072	0.65
287.542	0.82
288.011	0.67
288.48	0.48
288.95	1.05
289.419	0.64
289.888	0.45
290.357	0.66
290.827	0.69
291.296	0.89
291.765	1.04
292.234	0.69
292.703	0.44
293.172	0.38
293.641	0.97
294.11	0.83
294.579	1.13
295.048	1.16
295.517	1.33
295.986	0.69
296.455	0.46
296.923	-0.05
297.392	1.21
297.861	0.54
298.33	0.48
298.798	0.45
299.267	0.99
299.736	0.72
300.204	0.2
300.673	0.71
301.141	0.79
301.61	1.62
302.079	0.48
302.547	1.47
303.015	1.12
303.484	1.04
303.952	1.3
304.421	0.91
304.889	0.97
305.357	1.64
305.825	0.58
306.294	0.82
306.762	1.44
307.23	0.68
307.698	1.38
308.166	0.81
308.634	1.1
309.103	0.6
309.571	1.34
310.039	1.58
310.507	1.18
310.975	0.9
311.442	1.46
311.91	1.14
312.378	1.49
312.846	1.27
313.314	0.94
313.782	0.95
314.249	1.48
314.717	1.53
315.185	1.16
315.652	1.56
316.12	1.04
316.588	1.58
317.055	1.14
317.523	1.11
317.99	0.91
318.458	1.78
318.925	1.7
319.393	2.12
319.86	1.72
320.328	1.29
320.795	1.32
321.262	2.25
321.73	1.95
322.197	1.84
322.664	1.23
323.131	2.02
323.598	1.85
324.066	2.07
324.533	2.14
325	1.75
325.467	2.57
325.934	2.25
326.401	2.35
326.868	2.52
327.335	3.21
327.802	3.54
328.269	3.62
328.735	3.33
329.202	4.24
329.669	4.61
330.136	4.52
330.603	5.2
331.069	4.46
331.536	5.37
332.003	5.09
332.469	5.05
332.936	6.02
333.402	5.79
333.869	5.37
334.336	6.03
334.802	6.58
335.268	6.64
335.735	6.33
336.201	6.33
336.668	7.45
337.134	6.84
337.6	7.73
338.067	7.07
338.533	6.82
338.999	7.51
339.465	6.88
339.931	7.08
340.398	7.34
340.864	7.48
341.33	6.99
341.796	6.74
342.262	7.09
342.728	6.7
343.194	7.3
343.66	7.5
344.126	7.49
344.592	6.77
345.057	7.43
345.523	7.65
345.989	7.01
346.455	7.4
346.921	7.88
347.386	7.54
347.852	6.75
348.318	7.72
348.783	6.47
349.249	7.13
349.714	7.62
350.18	8.12
350.645	6.99
351.111	7.53
351.576	7.35
352.042	7.77
352.507	6.89
352.973	7.17
353.438	7.12
353.903	7.25
354.369	7.3
354.834	7.54
355.299	7.91
355.764	7.32
356.229	7.56
356.695	6.8
357.16	6.92
357.625	7.8
358.09	7.36
358.555	7.5
359.02	7.37
359.485	7.81
359.95	8.33
360.415	6.77
360.879	7.92
361.344	6.28
361.809	7.03
362.274	7.6
362.739	7.88
363.203	7.5
363.668	7.84
364.133	7.47
364.597	7.84
365.062	7.04
365.527	7.45
365.991	8.06
366.456	6.99
366.92	7.31
367.385	7.67
367.849	6.94
368.314	7.03
368.778	7.36
369.242	7.59
369.707	8.06
370.171	7.8
370.635	7.31
371.1	7.46
371.564	7.31
372.028	7.56
372.492	7.46
372.956	7.17
373.42	7.03
373.884	7.81
374.348	7.54
374.812	7.44
375.276	7.74
375.74	7.63
376.204	8.54
376.668	7.71
377.132	7.58
377.596	7.75
378.06	6.71
378.524	6.91
378.987	7.31
379.451	7.9
379.915	7.3
380.378	8.17
380.842	6.82
381.306	7.93
381.769	7.1
382.233	7.47
382.696	7.48
383.16	6.38
383.623	6.96
384.087	6.57
384.55	6.98
385.014	7.62
385.477	6.75
385.94	7.71
386.404	7.19
386.867	7.15
387.33	7.47
387.793	7.53
388.256	7.11
388.72	8.22
389.183	6.94
389.646	7.62
390.109	6.68
390.572	7.35
391.035	7.3
391.498	7.71
391.961	6.8
392.424	7.35
392.887	7.34
393.35	6.38
393.812	6.88
394.275	6.65
394.738	7.02
395.201	6.88
395.664	6.61
396.126	7.09
396.589	6.91
397.052	6.95
397.514	6.82
397.977	6.44
398.439	6.65
398.902	7.17
399.364	5.81
399.827	6.4
400.289	6.75
400.752	7.15
401.214	6.98
401.676	6.15
402.139	5.79
402.601	6.86
403.063	6.28
403.525	5.5
403.988	5.63
404.45	5.92
404.912	6.47
405.374	6.28
405.836	6.13
406.298	6.43
406.76	6.18
407.222	5.69
407.684	6.31
408.146	6.68
408.608	6.56
409.07	6.13
409.532	5.68
409.994	6.48
410.456	5.61
410.917	5.74
411.379	6.05
411.841	5.35
412.303	5.64
412.764	5.31
413.226	5.44
413.687	5.89
414.149	6.24
414.611	6.02
415.072	6.07
415.534	5.84
415.995	5.36
416.457	5.51
416.918	6.17
417.379	5.92
417.841	6
418.302	5.64
418.763	5.78
419.225	6.32
419.686	5.74
420.147	6.14
420.608	6.72
421.069	5.97
421.53	5.86
421.991	6.48
422.453	5.76
422.914	6.86
423.375	6.25
423.836	6.31
424.297	6.12
424.757	6.7
425.218	6.51
425.679	7.11
426.14	7.61
426.601	6.12
427.062	7.84
427.522	6.31
427.983	7.06
428.444	8.02
428.904	6.34
429.365	7.13
429.826	6.16
430.286	7.59
430.747	7.81
431.207	6.6
431.668	7.38
432.128	8.03
432.589	8
433.049	7.56
433.509	8.8
433.97	6.33
434.43	7.33
434.89	7.77
435.351	8.21
435.811	7.86
436.271	7.43
436.731	8.53
437.191	9.1
437.651	8.33
438.112	8.9
438.572	6.69
439.032	7.51
439.492	9.33
439.952	8.57
440.412	9.27
440.871	8.47
441.331	8.5
441.791	9.01
442.251	8.84
442.711	8.22
443.171	9.49
443.63	8.04
444.09	9.04
444.55	10.18
445.009	9.46
445.469	8.84
445.929	10.04
446.388	9.14
446.848	8.8
447.307	9.66
447.767	8
448.226	9.04
448.686	9.18
449.145	8.98
449.604	9.12
450.064	9.47
450.523	8.62
450.982	8.97
451.442	8.74
451.901	9.04
452.36	8.41
452.819	9.27
453.278	8.96
453.737	10.32
454.197	9.31
454.656	8.56
455.115	8.8
455.574	9.07
456.033	9.93
456.492	9.37
456.95	9.87
457.409	9.12
457.868	9.12
458.327	8.89
458.786	9.22
459.245	8.31
459.703	8.69
460.162	9.18
460.621	9.07
461.079	8.56
461.538	9.03
461.997	9.18
462.455	9.52
462.914	8.6
463.372	9.85
463.831	10.63
464.289	9.95
464.748	9.56
465.206	9.28
465.664	8.61
466.123	9.11
466.581	8.39
467.039	10.03
467.497	9.04
467.956	9.68
468.414	9.94
468.872	10.45
469.33	10.35
469.788	10.98
470.246	9.22
470.704	10.96
471.162	9.24
471.62	10.3
472.078	8.7
472.536	9.23
472.994	9.12
473.452	9.06
473.91	9.76
474.368	10.78
474.826	9.73
475.283	10.27
475.741	9.78
476.199	10.41
476.656	10.55
477.114	10.17
477.572	9.52
478.029	10.2
478.487	10.03
478.944	9.44
479.402	9.96
479.859	10.15
480.317	10.4
480.774	11.53
481.232	9.18
481.689	9.94
482.146	10.33
482.604	7.93
483.061	10.26
483.518	10.15
483.975	11.42
484.433	9.67
484.89	9.83
485.347	11.73
485.804	10.19
486.261	9.8
486.718	11.56
487.175	8.87
487.632	11.14
488.089	9.44
488.546	9.68
489.003	11.45
489.46	11.67
489.917	11.03
490.373	11.24
490.83	9.41
491.287	9.26
491.744	11.49
492.2	10.82
492.657	11.31
493.114	11.06
493.57	10.31
494.027	12.15
494.484	11.02
494.94	10.89
495.397	12.02
495.853	10.38
496.31	10.92
496.766	11.82
497.222	12.23
497.679	11.48
498.135	11.32
498.591	10.11
499.048	10.87
499.504	10.8
499.96	11.6
500.416	13.05
500.872	12.35
501.329	11.31
501.785	11.76
502.241	11.68
502.697	11.37
503.153	11.3
503.609	12.99
504.065	13.03
504.521	11.6
504.977	12.12
505.432	12
505.888	12.3
506.344	12.06
506.8	12.17
507.256	12.08
507.711	12.47
508.167	12.28
508.623	12.05
509.078	13.42
509.534	11.79
509.99	12.49
510.445	12.45
510.901	13.06
511.356	13.34
511.812	14.66
512.267	12.14
512.722	13.83
513.178	12.6
513.633	13.64
514.089	12.03
514.544	12.88
514.999	13.52
515.454	13.17
515.91	13.4
516.365	12.31
516.82	12.98
517.275	13.96
517.73	14.52
518.185	13.37
518.64	13.77
519.095	13.93
519.55	12.65
520.005	13.92
520.46	14.32
520.915	13.02
521.37	13.1
521.825	13.99
522.28	14.33
522.734	13.76
523.189	13.3
523.644	12.87
524.099	14.06
524.553	14.81
525.008	13.66
525.462	13.4
525.917	13.38
526.372	12.88
526.826	13.7
527.281	12.24
527.735	14.16
528.19	13.01
528.644	14.38
529.098	14.08
529.553	13.69
530.007	13.13
530.461	13.16
530.916	14.81
531.37	13.11
531.824	13.77
532.278	13.64
532.732	13.4
533.186	13.99
533.641	13.27
534.095	14
534.549	12.82
535.003	12.36
535.457	12.24
535.911	12.77
536.365	13.51
536.818	13.59
537.272	13.33
537.726	13.36
538.18	13.7
538.634	12.45
539.087	13.02
539.541	13.55
539.995	13.26
540.449	13.11
540.902	13.72
541.356	13.55
541.809	12.8
542.263	12.53
542.716	12.72
543.17	12.07
543.623	13.24
544.077	14.01
544.53	12.95
544.984	13.78
545.437	13.11
545.89	12.43
546.344	13.54
546.797	13.5
547.25	14.39
547.703	12.04
548.157	13.87
548.61	13.09
549.063	14.71
549.516	12.56
549.969	13.13
550.422	13.75
550.875	14.17
551.328	12.79
551.781	12.61
552.234	13.78
552.687	13.69
553.14	12.84
553.592	14.03
554.045	13.14
554.498	14.36
554.951	13.99
555.404	14.5
555.856	13.81
556.309	13.74
556.762	13.33
557.214	13.92
557.667	15.37
558.119	13.96
558.572	13.73
559.024	14.35
559.477	13.98
559.929	15.79
560.382	14.3
560.834	15
561.286	14.84
561.739	13.91
562.191	14.36
562.643	14.71
563.095	14.08
563.548	13.75
564	14.47
564.452	14.3
564.904	14.22
565.356	15.23
565.808	14.3
566.26	14.24
566.712	14.36
567.164	13.57
567.616	14.2
568.068	14.15
568.52	14.39
568.972	16.11
569.424	13.93
569.876	14.03
570.327	13.52
570.779	14.46
571.231	15.03
571.682	14.32
572.134	13.19
572.586	13.51
573.037	13.53
573.489	14.07
573.941	14.3
574.392	13.97
574.844	14.17
575.295	13.03
575.746	14.56
576.198	14.09
576.649	13.65
577.101	14.13
577.552	13.87
578.003	13.62
578.454	13.34
578.906	14.05
579.357	14.38
579.808	14.02
580.259	14.67
580.71	14.01
581.161	14.02
581.612	14.51
582.064	14.41
582.515	13.79
582.965	15.16
583.416	14.33
583.867	15.08
584.318	15.45
584.769	14.71
585.22	14.66
585.671	14.96
586.122	15.31
586.572	15.86
587.023	14.95
587.474	15.54
587.924	14.81
588.375	15.05
588.826	15.75
589.276	16.55
589.727	15.97
590.177	16.04
590.628	15.92
591.078	16.61
591.529	15.93
591.979	16.73
592.429	16.95
592.88	17.23
593.33	16.92
593.78	17.03
594.231	16.88
594.681	17.04
595.131	16.74
595.581	17.18
596.031	16.54
596.481	16.91
596.932	17.25
597.382	17.43
597.832	17.32
598.282	17
598.732	17.61
599.182	16.64
599.632	16.85
600.081	16.93
600.531	16.34
600.981	16.7
601.431	16.43
601.881	18.24
602.33	17.89
602.78	17.34
603.23	17.22
603.679	17.07
604.129	17.77
604.579	17.49
605.028	17.08
605.478	17.09
605.927	17.19
606.377	17.84
606.826	17.75
607.276	17.1
607.725	17.63
608.175	18.85
608.624	17.83
609.073	17.05
609.522	17.71
609.972	18.58
610.421	17.18
610.87	18.36
611.319	17.43
611.768	18.18
612.218	17.89
612.667	17.65
613.116	17.35
613.565	18.4
614.014	17.79
614.463	18.14
614.912	18.04
615.361	17.77
615.81	17.58
616.258	18.34
616.707	17.92
617.156	18.34
617.605	17.83
618.054	18.04
618.502	18.52
618.951	18.21
619.4	17.54
619.848	17.91
620.297	18.31
620.745	18.83
621.194	17.78
621.642	17.71
622.091	17.49
622.539	17.97
622.988	17.97
623.436	17.75
623.885	18.58
624.333	18.09
624.781	18.29
625.23	18.45
625.678	17.72
626.126	18.07
626.574	18.06
627.022	18.78
627.471	17.96
627.919	18.75
628.367	18.37
628.815	18.44
629.263	18.69
629.711	18.87
630.159	18.68
630.607	18.3
631.055	18.92
631.503	18.78
631.95	18.71
632.398	18.24
632.846	18.16
633.294	17.77
633.742	18.67
634.189	18.26
634.637	18.67
635.085	18.52
635.532	18.85
635.98	18.44
636.427	18.66
636.875	18.7
637.323	18.92
637.77	18.37
638.217	18.71
638.665	18.76
639.112	18.68
639.56	18.66
640.007	18.43
640.454	18.4
640.902	19.07
641.349	19.34
641.796	18.54
642.243	18.53
642.69	18.59
643.138	18.28
643.585	18.66
644.032	18.83
644.479	18.65
644.926	18.88
645.373	19.21
645.82	18.99
646.267	18.59
646.714	18.73
647.161	18.87
647.607	19.4
648.054	19.35
648.501	19
648.948	18.6
649.395	19.74
649.841	18.78
650.288	19.69
650.735	19.51
651.181	19.14
651.628	19.08
652.075	19.52
652.521	19.13
652.968	19.36
653.414	18.57
653.861	19.95
654.307	19.26
654.753	19.63
655.2	19.87
655.646	19.42
656.092	19.12
656.539	19.48
656.985	19.36
657.431	18.86
657.877	19.34
658.324	19.46
658.77	19.76
659.216	19.78
659.662	19.57
660.108	19.53
660.554	20.14
661	19.78
661.446	19.94
661.892	20.03
662.338	20.07
662.784	20.43
663.23	19.46
663.675	19.23
664.121	20.1
664.567	19.42
665.013	19.92
665.458	19.9
665.904	19.68
666.35	19.64
666.795	20.07
667.241	19.73
667.687	20.27
668.132	19.45
668.578	19.91
669.023	20.61
669.469	19.95
669.914	20.24
670.359	19.62
670.805	19.37
671.25	20.11
671.695	20.29
672.141	19.85
672.586	20.15
673.031	21.12
673.476	20
673.922	20.44
674.367	19.46
674.812	20.22
675.257	19.95
675.702	19.81
676.147	19.89
676.592	19.47
677.037	20.12
677.482	20.76
677.927	20.34
678.372	19.93
678.817	20.81
679.261	20.14
679.706	19.84
680.151	20.22
680.596	20.21
681.04	20.32
681.485	20.79
681.93	20.58
682.374	20.55
682.819	19.75
683.264	20.33
683.708	20.32
684.153	20.86
684.597	20.19
685.042	19.95
685.486	20.19
685.93	20.59
686.375	19.98
686.819	20.05
687.263	20.98
687.708	20.36
688.152	20.58
688.596	20.42
689.04	20.38
689.485	20.4
689.929	20.65
690.373	20.5
690.817	20.42
691.261	20.85
691.705	20.8
692.149	19.79
692.593	20.72
693.037	20.86
693.481	21
693.925	20.65
694.369	20.5
694.812	20.87
695.256	20.23
695.7	20.58
696.144	20.27
696.587	20.84
697.031	20.59
697.475	20.77
697.918	20.46
698.362	20.59
698.806	21.09
699.249	20.55
699.693	20.99
700.136	20.65
700.58	20.45
701.023	20.64
701.466	20.23
701.91	20.49
702.353	20.76
702.796	20.73
703.24	20.22
703.683	20.78
704.126	20.86
704.569	21.01
705.013	20.74
705.456	20.7
705.899	20.99
706.342	21.27
706.785	20.89
707.228	20.67
707.671	20.76
708.114	21.36
708.557	20.47
709	20.8
709.443	20.63
709.886	20.9
710.328	20.77
710.771	21.06
711.214	20.72
711.657	21.16
712.099	20.39
712.542	21.04
712.985	20.54
713.427	21.16
713.87	20.95
714.313	20.99
714.755	21.18
715.198	20.54
715.64	21.25
716.083	21.31
716.525	20.98
716.967	21.14
717.41	21.25
717.852	20.14
718.295	21.06
718.737	20.45
719.179	21.69
719.621	20.88
720.063	20.45
720.506	21.14
720.948	21.23
721.39	21.68
721.832	21.34
722.274	21.69
722.716	21.73
723.158	21.24
723.6	20.98
724.042	21.36
724.484	21.22
724.926	21.48
725.368	20.86
725.81	20.66
726.251	21.32
726.693	21.7
727.135	21.12
727.577	21.75
728.018	21.33
728.46	21.37
728.902	21.26
729.343	21.05
729.785	21.3
730.226	21.36
730.668	20.38
731.109	21.17
731.551	20.74
731.992	21.23
732.434	21.4
732.875	21.02
733.316	21.1
733.758	21.27
734.199	20.97
734.64	21.66
735.081	20.7
735.523	21.31
735.964	21.53
736.405	21.61
736.846	21.08
737.287	21.23
737.728	21.07
738.169	21.27
738.61	21.41
739.051	21.22
739.492	21.22
739.933	22.38
740.374	21.53
740.815	21.39
741.256	21.16
741.696	21.2
742.137	21.14
742.578	21.36
743.019	21.94
743.459	21.83
743.9	21.18
744.341	21.35
744.781	21.14
745.222	21.64
745.662	21.54
746.103	21.1
746.543	20.81
746.984	21.3
747.424	22.03
747.865	21.51
748.305	21.23
748.745	21.72
749.186	21.8
749.626	21.55
750.066	21.37
750.506	21.64
750.947	21.17
751.387	21.49
751.827	20.97
752.267	21.69
752.707	21.52
753.147	21.3
753.587	21.88
754.027	21.61
754.467	22.05
754.907	21.72
755.347	21.53
755.787	21.45
756.227	21.59
756.667	21.32
757.107	21.52
757.546	22.04
757.986	21.8
758.426	21.09
758.865	21.9
759.305	21.43
759.745	21.47
760.184	21.89
760.624	22.6
761.063	21.61
761.503	21.83
761.943	21.42
762.382	21.97
762.821	22.2
763.261	22.42
763.7	22.11
764.14	21.32
764.579	22.13
765.018	21.84
765.457	21.62
765.897	21.77
766.336	21.89
766.775	21.35
767.214	22.18
767.653	21.91
768.092	21.92
768.531	21.99
768.97	21.76
769.409	22.17
769.848	22.24
770.287	22
770.726	22.32
771.165	21.82
771.604	22.48
772.043	21.87
772.482	21.69
772.92	22.17
773.359	21.98
773.798	21.66
774.237	22.42
774.675	22.34
775.114	22.08
775.553	22.2
775.991	21.51
776.43	22.82
776.868	21.85
777.307	22.64
777.745	22.22
778.184	22.37
778.622	22.16
779.06	21.85
779.499	22.23
779.937	22.04
780.375	21.44
780.814	22.3
781.252	22.18
781.69	21.67
782.128	22.31
782.566	22.08
783.004	22.4
783.443	21.59
783.881	21.74
784.319	22.46
784.757	22.12
785.195	22.5
785.633	22
786.071	21.93
786.508	21.8
786.946	22.39
787.384	21.76
787.822	22.39
788.26	22.04
788.697	22.39
789.135	22.43
789.573	22.15
790.011	22.61
790.448	22.61
790.886	22.02
791.323	22.06
791.761	22.15
792.198	22.7
792.636	22.12
793.073	22.03
793.511	22.1
793.948	21.97
794.386	22.25
794.823	22.66
795.26	22.43
795.698	22.54
796.135	22.19
796.572	22.38
797.009	22.48
797.446	22.27
797.884	22.87
798.321	22.14
798.758	22.39
799.195	22.64
799.632	21.8
800.069	22.65
800.506	22.64
800.943	22.08
801.38	22.29
801.817	22.13
802.254	22.53
802.69	22.37
803.127	22.67
803.564	23.01
804.001	22.77
804.438	22.81
804.874	22.85
805.311	22.16
805.748	22.46
806.184	22.74
806.621	22.72
807.057	22.95
807.494	22.64
807.93	23.14
808.367	22.64
808.803	22.45
809.24	22.92
809.676	22.52
810.112	22.49
810.549	22.57
810.985	22.4
811.421	22.95
811.857	22.38
812.294	22.75
812.73	22.81
813.166	22.52
813.602	22.78
814.038	22.53
814.474	22.58
814.91	22.73
815.346	22.55
815.782	22.68
816.218	23.04
816.654	22.87
817.09	22.95
817.526	22.72
817.962	22.43
818.398	22.98
818.833	22.79
819.269	22.87
819.705	22.46
820.141	22.76
820.576	22.4
821.012	23.09
821.447	22.86
821.883	23.23
