Data from JCR0014_SupralabialWhite_Reflection_00001.txt Node
Date: Thu Jul 23 15:02:29 ACST 2020
User: Stacey Dix
Spectrometer: MAYP113282
Scans to average: 1
Trigger mode: 0
Integration Time (sec): 1.000000E-1
Electric dark correction enabled: true
Boxcar width: 0
XAxis mode: Wavelengths
Number of Pixels in Spectrum: 2068
>>>>>Begin Spectral Data<<<<<
198.791	-1100
199.266	500
199.74	100
200.215	14.29
200.69	20.48
201.164	60
201.639	60.56
202.114	68.79
202.588	90.12
203.063	8.27
203.537	145.16
204.012	21.35
204.486	41.01
204.961	54.02
205.435	38.21
205.909	49.47
206.384	45.58
206.858	54.64
207.332	51.3
207.807	32.67
208.281	40.15
208.755	54.95
209.229	26.72
209.703	49.55
210.177	40.17
210.651	47.45
211.126	17.24
211.6	28.47
212.074	51.72
212.548	66.93
213.021	26.24
213.495	33.33
213.969	26.05
214.443	-2.33
214.917	37.59
215.391	32.54
215.864	35.67
216.338	35.52
216.812	37.72
217.286	30.35
217.759	40.27
218.233	38.46
218.706	41.04
219.18	50.21
219.654	26.63
220.127	33.91
220.6	40.09
221.074	26.44
221.547	40.26
222.021	31.6
222.494	51.54
222.967	20.58
223.441	-1.4
223.914	5.08
224.387	16.83
224.86	24.61
225.334	27.38
225.807	20.12
226.28	12.41
226.753	24.06
227.226	20.29
227.699	21.21
228.172	12.76
228.645	4.7
229.118	19.09
229.591	14.29
230.064	14.19
230.537	21.73
231.01	17.56
231.482	15.42
231.955	10.5
232.428	13.98
232.901	11.41
233.373	14.77
233.846	10.48
234.319	9.53
234.791	11.93
235.264	13.33
235.736	8.89
236.209	7.84
236.681	11.3
237.154	8.78
237.626	11.81
238.099	8.82
238.571	9.08
239.044	10.9
239.516	11.81
239.988	10.42
240.46	11.04
240.933	10.62
241.405	8.08
241.877	7.58
242.349	9.57
242.821	7.96
243.293	10.62
243.765	6.36
244.237	11.49
244.71	9.14
245.181	12.24
245.653	13.99
246.125	8.55
246.597	9.6
247.069	10.49
247.541	8.94
248.013	7.83
248.485	8.08
248.956	8.68
249.428	8.27
249.9	8.98
250.371	8.09
250.843	9.3
251.315	5.21
251.786	9.1
252.258	9.31
252.729	7.88
253.201	6.66
253.672	5
254.144	6.52
254.615	7.65
255.086	6.6
255.558	6.91
256.029	5.53
256.5	6.55
256.972	6.97
257.443	7.24
257.914	7.1
258.385	6.16
258.856	5.14
259.327	8.07
259.799	4.88
260.27	4.58
260.741	6.84
261.212	7.87
261.683	7.3
262.154	8.57
262.624	6.95
263.095	6.13
263.566	7.05
264.037	5.78
264.508	6.86
264.979	4.98
265.449	5.02
265.92	6.47
266.391	5.92
266.861	6.77
267.332	7.49
267.803	5.33
268.273	5.35
268.744	5.42
269.214	6.86
269.685	7.7
270.155	5.08
270.626	5.99
271.096	5.15
271.566	5.85
272.037	5.61
272.507	6.77
272.977	6.17
273.448	7.57
273.918	6.45
274.388	4.51
274.858	6.81
275.328	8.04
275.798	3.68
276.268	7.05
276.738	7.59
277.208	4.88
277.678	7.11
278.148	6.82
278.618	3.9
279.088	5.42
279.558	8.41
280.028	7.57
280.498	4.64
280.968	3.59
281.437	5.72
281.907	5.27
282.377	6.77
282.847	5.36
283.316	3.91
283.786	4.79
284.255	5.34
284.725	5.85
285.194	5.71
285.664	5.59
286.133	3.91
286.603	5.59
287.072	4.3
287.542	4.88
288.011	5.27
288.48	5.67
288.95	3.78
289.419	5.71
289.888	5.46
290.357	5.96
290.827	5.58
291.296	4.64
291.765	5.47
292.234	4.41
292.703	5.99
293.172	6.36
293.641	2.68
294.11	3.21
294.579	5.8
295.048	4.8
295.517	3.86
295.986	4.66
296.455	6.91
296.923	5.17
297.392	4.63
297.861	7.04
298.33	4.52
298.798	4.16
299.267	4.68
299.736	6.99
300.204	6.31
300.673	5.79
301.141	6.7
301.61	5.82
302.079	6.79
302.547	5.07
303.015	7.35
303.484	8.09
303.952	5.59
304.421	5.6
304.889	5.32
305.357	7.56
305.825	6.37
306.294	6.59
306.762	8.2
307.23	7.42
307.698	8.1
308.166	6.21
308.634	5.58
309.103	8.36
309.571	8.09
310.039	7.99
310.507	6.6
310.975	6.94
311.442	8.29
311.91	8.38
312.378	6.95
312.846	5.84
313.314	6.95
313.782	8.79
314.249	8.53
314.717	8.74
315.185	8.05
315.652	8.89
316.12	9.36
316.588	9.68
317.055	8.85
317.523	8.84
317.99	10.13
318.458	10.72
318.925	9.74
319.393	8.54
319.86	8
320.328	10.26
320.795	11.56
321.262	10.77
321.73	10.49
322.197	10.78
322.664	11.43
323.131	12.98
323.598	13.53
324.066	10.69
324.533	13.22
325	14.36
325.467	16.35
325.934	16.15
326.401	19.38
326.868	19.28
327.335	19.95
327.802	22.48
328.269	23.44
328.735	27.37
329.202	23.65
329.669	27.62
330.136	28.5
330.603	30.99
331.069	32.97
331.536	36.29
332.003	34.82
332.469	39.69
332.936	39.49
333.402	40.06
333.869	41.98
334.336	47
334.802	44.36
335.268	44.99
335.735	48.75
336.201	48.79
336.668	49.46
337.134	53.64
337.6	50.09
338.067	53.08
338.533	53.84
338.999	52.85
339.465	55.44
339.931	52.85
340.398	54.81
340.864	55
341.33	57.16
341.796	55.05
342.262	56.98
342.728	54.26
343.194	58.27
343.66	55.95
344.126	56.06
344.592	57.46
345.057	56.28
345.523	57.94
345.989	53.98
346.455	59.06
346.921	54.26
347.386	55.69
347.852	54.63
348.318	55.96
348.783	53.32
349.249	55.73
349.714	53.5
350.18	57.78
350.645	57.46
351.111	50.96
351.576	54.52
352.042	57.96
352.507	51.82
352.973	54.95
353.438	54.48
353.903	56.26
354.369	52.28
354.834	51.28
355.299	53.9
355.764	53.59
356.229	54.33
356.695	54.98
357.16	54.36
357.625	51.61
358.09	52.87
358.555	54.31
359.02	57.45
359.485	54.13
359.95	53.63
360.415	56.83
360.879	57.06
361.344	56.36
361.809	54.47
362.274	52.84
362.739	52.08
363.203	56.19
363.668	52.01
364.133	55.35
364.597	53.47
365.062	51.22
365.527	53.56
365.991	50.43
366.456	50.19
366.92	53.2
367.385	52.27
367.849	50.63
368.314	52.02
368.778	50.36
369.242	53.59
369.707	53.5
370.171	52.69
370.635	52.27
371.1	54.55
371.564	54.46
372.028	52.99
372.492	53.2
372.956	50.12
373.42	53.19
373.884	53.14
374.348	52.67
374.812	49.14
375.276	51.5
375.74	49.12
376.204	49.49
376.668	51.55
377.132	51.67
377.596	53.07
378.06	49.35
378.524	50.37
378.987	49.98
379.451	52.11
379.915	48.4
380.378	50.95
380.842	49.65
381.306	48.76
381.769	49.62
382.233	49.77
382.696	52.09
383.16	49.52
383.623	49.39
384.087	48.69
384.55	49.33
385.014	49.67
385.477	49.08
385.94	49.33
386.404	48.82
386.867	49.83
387.33	49.06
387.793	50.44
388.256	47.79
388.72	47.93
389.183	49.87
389.646	48.2
390.109	48.33
390.572	48.35
391.035	48.22
391.498	49.32
391.961	47.88
392.424	47.82
392.887	47.54
393.35	46.81
393.812	48.1
394.275	46.79
394.738	46.54
395.201	46.47
395.664	46.98
396.126	46.21
396.589	46.32
397.052	46.46
397.514	44.28
397.977	43.59
398.439	47.28
398.902	46.44
399.364	45.34
399.827	46.79
400.289	47.24
400.752	46.01
401.214	47.43
401.676	44.81
402.139	43.67
402.601	46.64
403.063	44.36
403.525	45.92
403.988	45.91
404.45	44.89
404.912	40.27
405.374	45.37
405.836	42.82
406.298	45.15
406.76	43.42
407.222	43.06
407.684	43.96
408.146	44.04
408.608	41.75
409.07	42.7
409.532	43.55
409.994	40.5
410.456	43.68
410.917	43.2
411.379	40.66
411.841	43.6
412.303	44.5
412.764	43.63
413.226	42.27
413.687	40.27
414.149	42.33
414.611	43.08
415.072	41.9
415.534	41.9
415.995	40.45
416.457	42.7
416.918	40.95
417.379	42.57
417.841	44.03
418.302	44.1
418.763	42.65
419.225	42.93
419.686	41.89
420.147	39.64
420.608	39.79
421.069	42.26
421.53	43.36
421.991	45.33
422.453	42.44
422.914	47.28
423.375	44.38
423.836	45.71
424.297	42.91
424.757	44.11
425.218	44.86
425.679	43.8
426.14	43.64
426.601	43.82
427.062	44.99
427.522	44.11
427.983	43
428.444	45.6
428.904	48.97
429.365	46.59
429.826	46.82
430.286	45.87
430.747	43.28
431.207	44.56
431.668	46.57
432.128	45.23
432.589	46.7
433.049	45.14
433.509	44.81
433.97	50.19
434.43	45.05
434.89	45.56
435.351	46.48
435.811	44.09
436.271	45.82
436.731	45.35
437.191	46.09
437.651	46.6
438.112	47.34
438.572	48.07
439.032	48.17
439.492	48.69
439.952	46.73
440.412	46.76
440.871	49.3
441.331	45.81
441.791	48.58
442.251	48.09
442.711	47.91
443.171	44.29
443.63	48.84
444.09	48.32
444.55	44.25
445.009	48.13
445.469	45.24
445.929	47.35
446.388	47.12
446.848	46.85
447.307	45.53
447.767	46.11
448.226	47.09
448.686	48.77
449.145	47.87
449.604	49.48
450.064	49.33
450.523	45.17
450.982	44.4
451.442	46.93
451.901	47.68
452.36	48.22
452.819	50.19
453.278	48.3
453.737	52.06
454.197	46.85
454.656	47.43
455.115	51.07
455.574	47.11
456.033	49.5
456.492	50.49
456.95	47.97
457.409	46.62
457.868	47.59
458.327	48.92
458.786	48.27
459.245	48.92
459.703	48.23
460.162	45.69
460.621	47.72
461.079	47.18
461.538	50.07
461.997	48.01
462.455	48.89
462.914	48.21
463.372	47.15
463.831	47.15
464.289	47.42
464.748	49.21
465.206	46.87
465.664	47.73
466.123	51.95
466.581	49.3
467.039	47.02
467.497	49.32
467.956	47.23
468.414	50.66
468.872	48.75
469.33	51.22
469.788	50.03
470.246	45.89
470.704	45.93
471.162	48.78
471.62	49.61
472.078	51.16
472.536	50.03
472.994	46.9
473.452	48.43
473.91	48.63
474.368	50.88
474.826	49.15
475.283	49.54
475.741	48.89
476.199	50.3
476.656	48.44
477.114	49.49
477.572	47.04
478.029	51.04
478.487	46.64
478.944	45.49
479.402	45.88
479.859	48.24
480.317	49.17
480.774	49.69
481.232	48.13
481.689	51.43
482.146	50.34
482.604	52.66
483.061	50.03
483.518	50.48
483.975	47.5
484.433	49.45
484.89	47.96
485.347	51.54
485.804	52
486.261	52.16
486.718	48.47
487.175	50.75
487.632	50.14
488.089	49.36
488.546	48.21
489.003	50.84
489.46	48.05
489.917	52.2
490.373	51.26
490.83	51.71
491.287	50.7
491.744	51.87
492.2	51.07
492.657	48.61
493.114	52.22
493.57	51.85
494.027	51.69
494.484	52.49
494.94	48.61
495.397	53.66
495.853	51.35
496.31	54.91
496.766	50.59
497.222	56.46
497.679	50.39
498.135	52.53
498.591	51.42
499.048	50.88
499.504	48.76
499.96	53.3
500.416	51.11
500.872	50.13
501.329	54.11
501.785	55.26
502.241	54.19
502.697	54.58
503.153	52.7
503.609	52.74
504.065	52.6
504.521	54.11
504.977	53.79
505.432	54.92
505.888	55.94
506.344	55.24
506.8	55.38
507.256	53.95
507.711	57.64
508.167	58.46
508.623	54.41
509.078	52.67
509.534	58.65
509.99	56.34
510.445	59.36
510.901	55.23
511.356	56.79
511.812	55.14
512.267	56.22
512.722	54.9
513.178	59.01
513.633	56.57
514.089	57.25
514.544	58.21
514.999	59.01
515.454	58.43
515.91	58.44
516.365	58.61
516.82	56.58
517.275	51.62
517.73	56.41
518.185	57.11
518.64	58.85
519.095	56.8
519.55	58.45
520.005	60.37
520.46	57.5
520.915	59.72
521.37	56.88
521.825	59.97
522.28	58.9
522.734	58.07
523.189	58.13
523.644	59.78
524.099	59.14
524.553	58.05
525.008	56.68
525.462	59.27
525.917	56.59
526.372	57.54
526.826	56.96
527.281	56.65
527.735	59.58
528.19	60.22
528.644	57.28
529.098	59.95
529.553	55.78
530.007	55.95
530.461	59.11
530.916	60.24
531.37	56.97
531.824	61.25
532.278	62.24
532.732	57.69
533.186	60.41
533.641	58.81
534.095	59.98
534.549	60.95
535.003	59.03
535.457	58.58
535.911	57.86
536.365	59.72
536.818	57.72
537.272	58.95
537.726	59.18
538.18	59.16
538.634	59.27
539.087	57.39
539.541	57.48
539.995	61.05
540.449	58.51
540.902	60.89
541.356	61.55
541.809	58.03
542.263	58.67
542.716	60.06
543.17	61.18
543.623	58.86
544.077	59.25
544.53	64.13
544.984	58.39
545.437	64.62
545.89	58.17
546.344	62.45
546.797	58.42
547.25	61.57
547.703	58.07
548.157	60.68
548.61	59.03
549.063	60.76
549.516	60.75
549.969	60.28
550.422	60.39
550.875	58.96
551.328	57.26
551.781	58.83
552.234	59.1
552.687	61.63
553.14	59.1
553.592	62.04
554.045	58.45
554.498	61.98
554.951	59.63
555.404	59.78
555.856	62.34
556.309	61.22
556.762	63.5
557.214	61.67
557.667	61.06
558.119	64.35
558.572	64.41
559.024	62.82
559.477	62.36
559.929	61.61
560.382	58.73
560.834	59.48
561.286	61.19
561.739	64.11
562.191	60.91
562.643	63.38
563.095	63.08
563.548	64.01
564	59.63
564.452	63.03
564.904	63.31
565.356	61.3
565.808	62.92
566.26	63.51
566.712	60.75
567.164	63.48
567.616	59.61
568.068	61.46
568.52	61.02
568.972	60.65
569.424	63.27
569.876	63.94
570.327	61.61
570.779	61.05
571.231	59.51
571.682	61
572.134	60.33
572.586	60.43
573.037	64.2
573.489	62.09
573.941	62.25
574.392	59.82
574.844	62.5
575.295	61.41
575.746	61.71
576.198	62.72
576.649	62.4
577.101	61.91
577.552	60.84
578.003	62.08
578.454	62.76
578.906	63.28
579.357	61.57
579.808	60.27
580.259	62.52
580.71	61.2
581.161	61.46
581.612	61.03
582.064	63.25
582.515	61.83
582.965	63.19
583.416	61.93
583.867	62.74
584.318	63.25
584.769	63.11
585.22	62.73
585.671	62.75
586.122	61.68
586.572	64.17
587.023	62.53
587.474	64.62
587.924	62.15
588.375	62.84
588.826	63.53
589.276	63.02
589.727	62.59
590.177	64.58
590.628	64.78
591.078	67.5
591.529	61.14
591.979	66.9
592.429	61.6
592.88	64.67
593.33	65.17
593.78	63.41
594.231	63.96
594.681	67.07
595.131	62.23
595.581	62.63
596.031	63.45
596.481	63.39
596.932	60.37
597.382	66.43
597.832	65.85
598.282	67.19
598.732	61.38
599.182	64.91
599.632	64.1
600.081	64.98
600.531	65.34
600.981	64.62
601.431	65.31
601.881	65.85
602.33	64.63
602.78	64.06
603.23	65.3
603.679	65.09
604.129	60.76
604.579	63.96
605.028	65.47
605.478	65.19
605.927	69.48
606.377	62.26
606.826	65.87
607.276	65.48
607.725	63.9
608.175	66.03
608.624	61.44
609.073	65.3
609.522	63.08
609.972	63.94
610.421	65.38
610.87	67.14
611.319	65.64
611.768	63.19
612.218	64.09
612.667	64.61
613.116	66.22
613.565	65.09
614.014	61.76
614.463	66.25
614.912	63.69
615.361	65.25
615.81	65.59
616.258	64.98
616.707	66.26
617.156	64.51
617.605	68.6
618.054	64.97
618.502	64.76
618.951	64.51
619.4	66.7
619.848	65.42
620.297	66.07
620.745	65.81
621.194	64.78
621.642	66.29
622.091	65.54
622.539	65.44
622.988	63.76
623.436	64.51
623.885	63.26
624.333	64.72
624.781	64.59
625.23	64.85
625.678	65.86
626.126	66
626.574	65.75
627.022	64.82
627.471	64.24
627.919	65.08
628.367	65.87
628.815	65.03
629.263	67.26
629.711	65.7
630.159	64.39
630.607	65.23
631.055	67.05
631.503	68.82
631.95	66.07
632.398	64.67
632.846	66.7
633.294	66.32
633.742	66.81
634.189	65.55
634.637	65.99
635.085	64.01
635.532	65.38
635.98	65.35
636.427	65.13
636.875	65.4
637.323	63.98
637.77	63.45
638.217	64.57
638.665	65.44
639.112	65.55
639.56	66.98
640.007	64.9
640.454	66.28
640.902	63.99
641.349	66.72
641.796	62.86
642.243	65.87
642.69	65.98
643.138	65.66
643.585	66.75
644.032	62.23
644.479	65.91
644.926	64.38
645.373	63.95
645.82	67.56
646.267	65.24
646.714	66.55
647.161	65.2
647.607	65.3
648.054	63.71
648.501	66.12
648.948	64.15
649.395	66.16
649.841	64.11
650.288	67.54
650.735	66.28
651.181	65.99
651.628	64.92
652.075	64.11
652.521	66.46
652.968	64.51
653.414	64.34
653.861	65.56
654.307	66.24
654.753	67.3
655.2	65.86
655.646	65.66
656.092	65.48
656.539	65.44
656.985	65.23
657.431	63.9
657.877	64.39
658.324	65.67
658.77	65.08
659.216	66.61
659.662	66.35
660.108	64.91
660.554	64.87
661	64.77
661.446	63.25
661.892	65.45
662.338	68.23
662.784	63.58
663.23	65.41
663.675	65.84
664.121	64.84
664.567	66.33
665.013	66.09
665.458	64.96
665.904	66.73
666.35	65.12
666.795	64.59
667.241	65.63
667.687	67.2
668.132	65.39
668.578	64.49
669.023	65.17
669.469	67.46
669.914	66.95
670.359	66.77
670.805	65.23
671.25	63.85
671.695	66.42
672.141	65.51
672.586	66.2
673.031	65.64
673.476	65.63
673.922	65.15
674.367	64.71
674.812	65.82
675.257	66.69
675.702	66.57
676.147	66.06
676.592	65.01
677.037	66.04
677.482	66.26
677.927	66.45
678.372	65.67
678.817	65.79
679.261	64.71
679.706	66.97
680.151	65.82
680.596	65.87
681.04	65.96
681.485	65.26
681.93	67.66
682.374	66.82
682.819	65.47
683.264	64.88
683.708	66.67
684.153	66.42
684.597	66.1
685.042	67.19
685.486	64.41
685.93	66.1
686.375	65.32
686.819	65.41
687.263	64.76
687.708	64.95
688.152	67.99
688.596	66.61
689.04	66.42
689.485	65.84
689.929	66.14
690.373	66
690.817	65.44
691.261	64.65
691.705	66.11
692.149	65.73
692.593	65.74
693.037	64.31
693.481	67.14
693.925	65.6
694.369	66.28
694.812	66.22
695.256	66.34
695.7	64.81
696.144	66.68
696.587	64.68
697.031	66.22
697.475	64.73
697.918	67.23
698.362	65.37
698.806	67.06
699.249	65.22
699.693	65.17
700.136	65.25
700.58	65.76
701.023	64.49
701.466	66.12
701.91	66.46
702.353	64.75
702.796	65.84
703.24	66.5
703.683	65.04
704.126	65.62
704.569	64.11
705.013	63.47
705.456	64.58
705.899	65.17
706.342	67.22
706.785	65.65
707.228	65.57
707.671	64.11
708.114	65.49
708.557	65.21
709	65.43
709.443	64.06
709.886	65.06
710.328	64.93
710.771	67.11
711.214	66.69
711.657	66.36
712.099	65.7
712.542	66.26
712.985	65.77
713.427	64.29
713.87	64.71
714.313	65.8
714.755	65.71
715.198	65.29
715.64	64.44
716.083	66.55
716.525	65.9
716.967	64.27
717.41	65.35
717.852	64.52
718.295	65.19
718.737	66.37
719.179	64.91
719.621	65.64
720.063	65.5
720.506	65.23
720.948	65.48
721.39	65.25
721.832	64.59
722.274	65.47
722.716	65.35
723.158	65.13
723.6	64.58
724.042	65.56
724.484	65.38
724.926	66.31
725.368	63.61
725.81	65.38
726.251	65.94
726.693	65.28
727.135	66.41
727.577	64.75
728.018	66.56
728.46	64.98
728.902	64.94
729.343	66.04
729.785	65.54
730.226	64.37
730.668	64.25
731.109	65.56
731.551	64.67
731.992	65.7
732.434	66.08
732.875	64.02
733.316	66.78
733.758	64.65
734.199	64.17
734.64	64.64
735.081	65.76
735.523	64.42
735.964	66.24
736.405	66.44
736.846	64.98
737.287	64.76
737.728	64.36
738.169	64.6
738.61	64.44
739.051	64.45
739.492	65.17
739.933	66.29
740.374	63.04
740.815	63.42
741.256	64.11
741.696	66.31
742.137	65.53
742.578	66.03
743.019	63.87
743.459	64.87
743.9	64.31
744.341	65.1
744.781	65.01
745.222	64.43
745.662	65.48
746.103	65.67
746.543	63.44
746.984	64.49
747.424	64.14
747.865	66.27
748.305	64.19
748.745	64.23
749.186	62.41
749.626	64.25
750.066	64.67
750.506	65.02
750.947	63.94
751.387	65.3
751.827	64.65
752.267	64.43
752.707	64.26
753.147	63.69
753.587	64.71
754.027	65.88
754.467	66.18
754.907	65.13
755.347	64.23
755.787	65.06
756.227	64.44
756.667	64.98
757.107	64.98
757.546	64.97
757.986	64.48
758.426	64.23
758.865	65.21
759.305	65.28
759.745	64.3
760.184	65.47
760.624	64.07
761.063	65.62
761.503	64.73
761.943	65.01
762.382	64.16
762.821	65.28
763.261	63.67
763.7	64.46
764.14	65.27
764.579	64.79
765.018	64.77
765.457	64.86
765.897	64.89
766.336	64.67
766.775	65.49
767.214	64.04
767.653	63.65
768.092	64.43
768.531	64.53
768.97	64.77
769.409	65.29
769.848	63.89
770.287	65.14
770.726	65.14
771.165	64.32
771.604	65.01
772.043	64.36
772.482	66.28
772.92	64.66
773.359	65.52
773.798	64.43
774.237	65.45
774.675	64.87
775.114	64.81
775.553	64.13
775.991	64.83
776.43	65.81
776.868	64.84
777.307	64.29
777.745	65.67
778.184	65.53
778.622	65.71
779.06	64.1
779.499	65.84
779.937	62.63
780.375	65.39
780.814	63.62
781.252	63.54
781.69	64.94
782.128	64.51
782.566	63.75
783.004	63.78
783.443	65.63
783.881	64.38
784.319	65.11
784.757	64.03
785.195	64.09
785.633	63.53
786.071	65.18
786.508	63.05
786.946	64.94
787.384	63.39
787.822	64.68
788.26	63.75
788.697	64.42
789.135	64.79
789.573	64.85
790.011	63.21
790.448	64.47
790.886	64.08
791.323	63.61
791.761	65.77
792.198	64.46
792.636	64.34
793.073	64.42
793.511	63.88
793.948	65.2
794.386	66.09
794.823	64.8
795.26	64.13
795.698	62.85
796.135	65.5
796.572	64.65
797.009	64.7
797.446	64.94
797.884	64.4
798.321	63.72
798.758	65.39
799.195	63.27
799.632	64.66
800.069	64.07
800.506	65.72
800.943	63.04
801.38	64.96
801.817	62.76
802.254	62.91
802.69	64.45
803.127	65.01
803.564	62.96
804.001	65.33
804.438	64.75
804.874	64
805.311	63.87
805.748	64.31
806.184	64.47
806.621	63.91
807.057	65.18
807.494	65.49
807.93	63.63
808.367	65.13
808.803	64.93
809.24	64.78
809.676	63.96
