Data from JCR0018_SupralabialBlack_Reflection_00001.txt Node
Date: Thu Jul 23 16:35:38 ACST 2020
User: Stacey Dix
Spectrometer: MAYP113282
Scans to average: 1
Trigger mode: 0
Integration Time (sec): 1.000000E-1
Electric dark correction enabled: true
Boxcar width: 0
XAxis mode: Wavelengths
Number of Pixels in Spectrum: 2068
>>>>>Begin Spectral Data<<<<<
198.791	-383.33
199.266	133.33
199.74	66.67
200.215	0
200.69	-6.39
201.164	-3.76
201.639	-7.33
202.114	14.58
202.588	-12.54
203.063	14.34
203.537	3.03
204.012	7.98
204.486	3.37
204.961	6.16
205.435	0.32
205.909	5.11
206.384	-0.5
206.858	-5.3
207.332	7.35
207.807	-8.96
208.281	18.91
208.755	3.21
209.229	-13.74
209.703	13.29
210.177	-7.9
210.651	4.43
211.126	5.43
211.6	6.14
212.074	9.68
212.548	3.23
213.021	6.75
213.495	14.42
213.969	0.87
214.443	-0.94
214.917	6.55
215.391	12.15
215.864	-5.04
216.338	-0.37
216.812	5.14
217.286	2.18
217.759	12.69
218.233	9.19
218.706	1.93
219.18	0.54
219.654	12.91
220.127	4.5
220.6	7
221.074	3.91
221.547	5.95
222.021	4.18
222.494	-1.51
222.967	2.18
223.441	-6.05
223.914	9.77
224.387	1.82
224.86	4.2
225.334	1.17
225.807	1.97
226.28	0.42
226.753	0.91
227.226	4.25
227.699	1.71
228.172	3.46
228.645	1.57
229.118	0.54
229.591	-1.44
230.064	0.27
230.537	2.76
231.01	0.46
231.482	0.82
231.955	1.53
232.428	0.56
232.901	0.29
233.373	0.52
233.846	0.41
234.319	1.39
234.791	0.9
235.264	0.22
235.736	0.73
236.209	0.53
236.681	0.92
237.154	1.6
237.626	1.28
238.099	0.45
238.571	2.23
239.044	1.02
239.516	1.68
239.988	0.3
240.46	2.32
240.933	0.81
241.405	0.71
241.877	-0.34
242.349	0.97
242.821	1.16
243.293	0.11
243.765	1.95
244.237	1.65
244.71	1.34
245.181	1.01
245.653	0.74
246.125	1.44
246.597	0.89
247.069	0.26
247.541	1.99
248.013	-0.17
248.485	0.89
248.956	1.81
249.428	0.94
249.9	1.38
250.371	1.82
250.843	0.41
251.315	0.22
251.786	2.02
252.258	0.26
252.729	1.42
253.201	1.74
253.672	0.94
254.144	0.79
254.615	0.45
255.086	0.44
255.558	0.85
256.029	0.55
256.5	0.73
256.972	0.52
257.443	0.62
257.914	0.78
258.385	0.6
258.856	1.24
259.327	0.61
259.799	0.69
260.27	0.73
260.741	0.88
261.212	0.67
261.683	0.62
262.154	0.78
262.624	0.77
263.095	0.72
263.566	1.33
264.037	1
264.508	-0.04
264.979	0.97
265.449	0.56
265.92	0.92
266.391	0.33
266.861	0.82
267.332	0.74
267.803	0.2
268.273	0.4
268.744	0.59
269.214	0.1
269.685	0.89
270.155	0.44
270.626	0.89
271.096	0.11
271.566	1.12
272.037	1.18
272.507	1.18
272.977	-0.02
273.448	0.05
273.918	0.96
274.388	1.09
274.858	0.38
275.328	0.82
275.798	0.8
276.268	0.68
276.738	0.16
277.208	0.95
277.678	0.28
278.148	-0.03
278.618	-0.06
279.088	0.42
279.558	0.46
280.028	0.95
280.498	0.19
280.968	0.32
281.437	1.03
281.907	0.33
282.377	0.46
282.847	-0.02
283.316	0.89
283.786	0.5
284.255	0.63
284.725	0.04
285.194	0.82
285.664	0.57
286.133	0.24
286.603	0.24
287.072	0.27
287.542	0.9
288.011	0.04
288.48	0.27
288.95	0.88
289.419	1.03
289.888	-0.22
290.357	0.15
290.827	0.52
291.296	0.49
291.765	0.72
292.234	0.69
292.703	0.69
293.172	0.43
293.641	0.82
294.11	0.71
294.579	0.92
295.048	1.45
295.517	0.42
295.986	0.1
296.455	0.58
296.923	0.01
297.392	0.16
297.861	0.01
298.33	0.84
298.798	0.17
299.267	0.36
299.736	0.56
300.204	0.1
300.673	0.29
301.141	0.75
301.61	0.97
302.079	0.85
302.547	1.5
303.015	0.56
303.484	0.49
303.952	0.77
304.421	0.01
304.889	0.78
305.357	0.76
305.825	0.32
306.294	0.32
306.762	1.15
307.23	0.77
307.698	0.96
308.166	0.83
308.634	-0.18
309.103	1.19
309.571	0.96
310.039	1.09
310.507	0.64
310.975	1.07
311.442	0.8
311.91	0.7
312.378	0.29
312.846	0.41
313.314	0.73
313.782	-0.19
314.249	0.76
314.717	0.73
315.185	0.73
315.652	0.78
316.12	0.83
316.588	0.72
317.055	0.69
317.523	1.23
317.99	0.76
318.458	0.64
318.925	0.7
319.393	0.67
319.86	0.56
320.328	1.54
320.795	-0.11
321.262	1.76
321.73	1.31
322.197	0.98
322.664	-0.11
323.131	0.92
323.598	1.69
324.066	1.18
324.533	0.74
325	1.38
325.467	1.68
325.934	1.47
326.401	0.58
326.868	1.19
327.335	1.67
327.802	1.7
328.269	1.54
328.735	1.68
329.202	2.18
329.669	2.18
330.136	1.78
330.603	2.5
331.069	2.35
331.536	2.78
332.003	2.85
332.469	2.21
332.936	3.09
333.402	2.24
333.869	2.79
334.336	2.85
334.802	2.55
335.268	2.65
335.735	2.75
336.201	2.74
336.668	3.38
337.134	3.17
337.6	2.76
338.067	4.11
338.533	2.85
338.999	3.56
339.465	2.71
339.931	3.75
340.398	3.77
340.864	2.77
341.33	3.38
341.796	2.96
342.262	2.68
342.728	2.9
343.194	2.5
343.66	3.08
344.126	3.12
344.592	2.93
345.057	3.83
345.523	3.56
345.989	2.41
346.455	2.77
346.921	3.87
347.386	3.21
347.852	3.42
348.318	3.39
348.783	3.47
349.249	2.63
349.714	3.05
350.18	3.67
350.645	2.87
351.111	3.59
351.576	3.37
352.042	3.1
352.507	3.52
352.973	3.19
353.438	2.86
353.903	3.02
354.369	3.13
354.834	3.89
355.299	3.49
355.764	2.86
356.229	3.12
356.695	3.33
357.16	3.07
357.625	3.15
358.09	2.96
358.555	3.58
359.02	2.8
359.485	2.96
359.95	3.26
360.415	3.86
360.879	2.97
361.344	2.85
361.809	3.56
362.274	3.77
362.739	3.07
363.203	3.21
363.668	4.28
364.133	3.08
364.597	3.17
365.062	3.15
365.527	2.91
365.991	3.83
366.456	3.22
366.92	2.83
367.385	2.63
367.849	2.76
368.314	2.3
368.778	3.21
369.242	2.67
369.707	2.7
370.171	3.09
370.635	3.36
371.1	3.19
371.564	2.72
372.028	3.36
372.492	2.82
372.956	3.17
373.42	3.32
373.884	3.98
374.348	3.55
374.812	3.36
375.276	3.46
375.74	3.93
376.204	3.29
376.668	3.03
377.132	2.91
377.596	3.26
378.06	3.26
378.524	2.92
378.987	2.46
379.451	3.55
379.915	3.46
380.378	3.34
380.842	3.68
381.306	2.68
381.769	3.35
382.233	4.05
382.696	2.39
383.16	3.3
383.623	4.1
384.087	2.66
384.55	3.75
385.014	3.34
385.477	3.12
385.94	3.76
386.404	3.75
386.867	3.22
387.33	3.77
387.793	3.24
388.256	2.97
388.72	3.6
389.183	3.16
389.646	3.67
390.109	3.2
390.572	3.54
391.035	3.56
391.498	3.7
391.961	3.16
392.424	3.58
392.887	3.56
393.35	3.23
393.812	3.5
394.275	3.12
394.738	3.64
395.201	3.33
395.664	3.36
396.126	2.7
396.589	3.33
397.052	2.9
397.514	3.17
397.977	3.02
398.439	3.55
398.902	3.78
399.364	3.06
399.827	3.73
400.289	3.82
400.752	2.88
401.214	3.48
401.676	3.2
402.139	2.84
402.601	3.7
403.063	2.94
403.525	3.68
403.988	2.83
404.45	2.91
404.912	3.18
405.374	2.96
405.836	3.3
406.298	3.19
406.76	3.02
407.222	3.35
407.684	3.07
408.146	3.33
408.608	2.89
409.07	3.03
409.532	2.88
409.994	2.85
410.456	2.83
410.917	3.01
411.379	3.72
411.841	3.33
412.303	3.01
412.764	3.13
413.226	2.99
413.687	3.14
414.149	2.62
414.611	3.25
415.072	2.93
415.534	3.09
415.995	3.04
416.457	3.01
416.918	2.78
417.379	3.08
417.841	3.2
418.302	3.89
418.763	3.02
419.225	3.71
419.686	2.55
420.147	3.26
420.608	3.12
421.069	3.11
421.53	3.18
421.991	3.8
422.453	2.89
422.914	3.07
423.375	3.01
423.836	2.77
424.297	2.66
424.757	3.49
425.218	3.87
425.679	2.93
426.14	3.55
426.601	3.41
427.062	2.63
427.522	2.47
427.983	3.01
428.444	3.31
428.904	2.48
429.365	3.2
429.826	3.62
430.286	4.13
430.747	4.74
431.207	3.31
431.668	3.31
432.128	4.55
432.589	3.33
433.049	3.73
433.509	3.42
433.97	3.45
434.43	3.37
434.89	2.42
435.351	3.84
435.811	2.57
436.271	2.54
436.731	3.33
437.191	3.87
437.651	3.22
438.112	4.24
438.572	1.66
439.032	3.66
439.492	4.08
439.952	3.56
440.412	3.78
440.871	4
441.331	3.67
441.791	4.23
442.251	4.3
442.711	4.05
443.171	4.68
443.63	5.16
444.09	3.51
444.55	4.04
445.009	3.85
445.469	3.48
445.929	4.1
446.388	4.03
446.848	4.01
447.307	4.59
447.767	3.55
448.226	3.99
448.686	3.64
449.145	3.61
449.604	4.03
450.064	4.33
450.523	4.2
450.982	5.23
451.442	4.22
451.901	4.5
452.36	3.49
452.819	3.72
453.278	4.42
453.737	3.43
454.197	4.7
454.656	3.6
455.115	3.48
455.574	3.72
456.033	4.7
456.492	3.91
456.95	5.08
457.409	3.09
457.868	4.35
458.327	3.71
458.786	3.17
459.245	2.91
459.703	3.91
460.162	4.36
460.621	3.35
461.079	3.88
461.538	3.98
461.997	3.45
462.455	4.87
462.914	3.58
463.372	3.86
463.831	4.23
464.289	3.51
464.748	4.17
465.206	4
465.664	4.8
466.123	3.36
466.581	3.59
467.039	3.77
467.497	4.66
467.956	3.7
468.414	3.45
468.872	3.93
469.33	3.97
469.788	4.45
470.246	3.8
470.704	4.62
471.162	4.03
471.62	4.78
472.078	3.63
472.536	5.56
472.994	4.93
473.452	3.77
473.91	4.74
474.368	4.25
474.826	4.38
475.283	3.98
475.741	3.07
476.199	4.11
476.656	4.38
477.114	4.18
477.572	3.03
478.029	3.21
478.487	4.53
478.944	2.46
479.402	5.59
479.859	4.11
480.317	3.7
480.774	6.18
481.232	3.35
481.689	5.15
482.146	5.47
482.604	3.66
483.061	4.58
483.518	4.45
483.975	5.24
484.433	3.36
484.89	4.52
485.347	4.44
485.804	3.45
486.261	2.43
486.718	4.31
487.175	2.32
487.632	4.52
488.089	2.6
488.546	5.43
489.003	4.8
489.46	4.76
489.917	3.77
490.373	5.96
490.83	3.03
491.287	4.71
491.744	4.41
492.2	3.99
492.657	5.03
493.114	4.3
493.57	2.77
494.027	5.47
494.484	3.82
494.94	4.16
495.397	5.23
495.853	5.37
496.31	3.81
496.766	4.03
497.222	4.79
497.679	4.1
498.135	5.76
498.591	4.65
499.048	5.39
499.504	3.61
499.96	6.04
500.416	5
500.872	5.94
501.329	6.24
501.785	4.11
502.241	4.74
502.697	4.04
503.153	3.79
503.609	4.28
504.065	3.2
504.521	5.18
504.977	3.93
505.432	4.24
505.888	5.59
506.344	5.39
506.8	5.38
507.256	5.24
507.711	5.33
508.167	5.3
508.623	5.27
509.078	5.42
509.534	5.7
509.99	4.63
510.445	5.49
510.901	5.04
511.356	6.08
511.812	5.39
512.267	4.38
512.722	5.64
513.178	6.1
513.633	5.52
514.089	6.15
514.544	5.66
514.999	6.02
515.454	5.34
515.91	5.54
516.365	4.98
516.82	6.04
517.275	5.29
517.73	5.98
518.185	5.57
518.64	5.95
519.095	5.99
519.55	5.42
520.005	5.81
520.46	6.2
520.915	6.05
521.37	6.6
521.825	5.81
522.28	6
522.734	5.49
523.189	5.29
523.644	5.88
524.099	5.51
524.553	5.77
525.008	6.13
525.462	5.69
525.917	6.45
526.372	5.09
526.826	5.94
527.281	5.61
527.735	5.67
528.19	4.38
528.644	6.72
529.098	6.32
529.553	6.12
530.007	6.06
530.461	5.54
530.916	5.34
531.37	6.32
531.824	6
532.278	5.2
532.732	5.75
533.186	6.3
533.641	5.38
534.095	5.99
534.549	6.57
535.003	5.45
535.457	6.2
535.911	5.54
536.365	6.95
536.818	6.44
537.272	5.36
537.726	5.66
538.18	6.34
538.634	5.96
539.087	5.97
539.541	6.5
539.995	5.56
540.449	6.64
540.902	5.73
541.356	5.3
541.809	5.72
542.263	5.71
542.716	5.88
543.17	6.53
543.623	5.89
544.077	7.21
544.53	5.97
544.984	6.27
545.437	6.56
545.89	6.01
546.344	6.62
546.797	5.46
547.25	5.62
547.703	5.48
548.157	6.36
548.61	5.57
549.063	7.32
549.516	6.54
549.969	6.33
550.422	6.29
550.875	6.24
551.328	5.47
551.781	6.27
552.234	5.74
552.687	6.15
553.14	6.56
553.592	5.66
554.045	5.41
554.498	5.51
554.951	6.82
555.404	6.38
555.856	6.03
556.309	5.79
556.762	6.34
557.214	6.63
557.667	6.28
558.119	6.53
558.572	6.07
559.024	6.6
559.477	6.5
559.929	6.32
560.382	6.52
560.834	7.62
561.286	6.51
561.739	6.41
562.191	6.87
562.643	6.29
563.095	7
563.548	6.34
564	7.22
564.452	6.37
564.904	7.24
565.356	7.63
565.808	6.6
566.26	6.63
566.712	6.64
567.164	6.48
567.616	7.66
568.068	6.82
568.52	7.02
568.972	7.67
569.424	6.38
569.876	7.22
570.327	7.21
570.779	6.52
571.231	7.58
571.682	7.31
572.134	6.7
572.586	7.65
573.037	6.18
573.489	7.38
573.941	7.39
574.392	6.5
574.844	6.81
575.295	6.74
575.746	6.97
576.198	7.42
576.649	6.63
577.101	7.48
577.552	6.61
578.003	7.15
578.454	6.78
578.906	6.39
579.357	6.03
579.808	7.06
580.259	7.31
580.71	7.53
581.161	7.43
581.612	7.08
582.064	7.49
582.515	6.87
582.965	7.48
583.416	7.74
583.867	7.1
584.318	6.99
584.769	7.44
585.22	7.23
585.671	8.22
586.122	7.29
586.572	7.3
587.023	7.71
587.474	7.6
587.924	7.63
588.375	7.26
588.826	6.86
589.276	7.68
589.727	7.4
590.177	8.14
590.628	7.28
591.078	7.36
591.529	7.73
591.979	7.53
592.429	7.89
592.88	7.86
593.33	7.66
593.78	8.35
594.231	7.92
594.681	7.67
595.131	7.64
595.581	8.34
596.031	7.2
596.481	8.39
596.932	8.2
597.382	7.84
597.832	7.08
598.282	7.6
598.732	8.01
599.182	7.68
599.632	7.86
600.081	7.32
600.531	7.81
600.981	8.13
601.431	8.25
601.881	7.31
602.33	8.03
602.78	8.1
603.23	8.23
603.679	8.3
604.129	7.47
604.579	7.72
605.028	7.67
605.478	8.27
605.927	7.87
606.377	7.62
606.826	8.2
607.276	7.61
607.725	8.53
608.175	7.7
608.624	8.61
609.073	8.21
609.522	8.39
609.972	8.9
610.421	8.27
610.87	8.02
611.319	7.85
611.768	8.73
612.218	8.25
612.667	8.6
613.116	8.84
613.565	8.1
614.014	8.01
614.463	8.27
614.912	8.9
615.361	8.73
615.81	8.4
616.258	7.99
616.707	8.82
617.156	8.84
617.605	8.07
618.054	8.74
618.502	9.03
618.951	8.55
619.4	8.22
619.848	9.14
620.297	8.41
620.745	8.65
621.194	8.43
621.642	8.56
622.091	8.8
622.539	8.42
622.988	8.55
623.436	8.07
623.885	8.68
624.333	8.64
624.781	9.08
625.23	9.23
625.678	8.24
626.126	8.72
626.574	8.78
627.022	8.94
627.471	8.48
627.919	8.5
628.367	8.64
628.815	8.91
629.263	8.58
629.711	9.1
630.159	8.61
630.607	8.16
631.055	9.1
631.503	8.86
631.95	9.16
632.398	8.68
632.846	8.48
633.294	8.88
633.742	9.11
634.189	8.73
634.637	9.08
635.085	9.28
635.532	8.65
635.98	8.87
636.427	9.13
636.875	9.12
637.323	9.28
637.77	9.25
638.217	9.12
638.665	9.18
639.112	9.46
639.56	9.48
640.007	9.24
640.454	8.71
640.902	9.3
641.349	8.73
641.796	9.23
642.243	8.49
642.69	9.06
643.138	9.32
643.585	8.9
644.032	8.99
644.479	8.88
644.926	9.28
645.373	9.46
645.82	9.23
646.267	8.86
646.714	9.15
647.161	9.05
647.607	10.16
648.054	9.71
648.501	9.45
648.948	9.13
649.395	9.59
649.841	9.78
650.288	9.51
650.735	9.2
651.181	9.08
651.628	9.83
652.075	9.51
652.521	9.6
652.968	9.59
653.414	9.41
653.861	9.43
654.307	9.83
654.753	9.82
655.2	9.89
655.646	9.64
656.092	9.76
656.539	9.43
656.985	9.63
657.431	9.6
657.877	9.64
658.324	10.03
658.77	9.57
659.216	10.09
659.662	10.49
660.108	9.81
660.554	9.93
661	9.82
661.446	9.81
661.892	10.18
662.338	9.52
662.784	10.27
663.23	9.82
663.675	9.78
664.121	9.7
664.567	9.79
665.013	9.89
665.458	9.87
665.904	9.87
666.35	9.5
666.795	9.95
667.241	9.88
667.687	10.15
668.132	9.82
668.578	10.5
669.023	10.23
669.469	9.46
669.914	10.01
670.359	10.21
670.805	9.48
671.25	10.5
671.695	9.66
672.141	10.09
672.586	10.34
673.031	10.67
673.476	10.09
673.922	10.29
674.367	9.99
674.812	10.44
675.257	9.86
675.702	10.31
676.147	10.09
676.592	10.12
677.037	10.13
677.482	10.68
677.927	10.18
678.372	10.31
678.817	10.37
679.261	10.75
679.706	10.22
680.151	10.62
680.596	10.48
681.04	10.38
681.485	10.14
681.93	10.22
682.374	10.53
682.819	10.41
683.264	10.37
683.708	10
684.153	10.58
684.597	10.42
685.042	10.75
685.486	10.69
685.93	10.68
686.375	10.17
686.819	10.63
687.263	10.75
687.708	10.37
688.152	10.68
688.596	10.75
689.04	10.75
689.485	10.46
689.929	11.06
690.373	10.47
690.817	10.85
691.261	10.53
691.705	10.85
692.149	10
692.593	11.09
693.037	10.64
693.481	10.98
693.925	10.57
694.369	10.81
694.812	10.74
695.256	10.53
695.7	11.18
696.144	10.63
696.587	10.69
697.031	11.16
697.475	10.76
697.918	11.48
698.362	11.08
698.806	10.84
699.249	10.83
699.693	10.8
700.136	11.11
700.58	10.48
701.023	11
701.466	11.05
701.91	11.18
702.353	10.81
702.796	11.12
703.24	10.6
703.683	11.17
704.126	11.47
704.569	11.13
705.013	11.13
705.456	10.99
705.899	11.37
706.342	11.53
706.785	11.09
707.228	11
707.671	11.06
708.114	11.24
708.557	11.07
709	10.96
709.443	10.98
709.886	11.23
710.328	11.31
710.771	11.39
711.214	11.24
711.657	11.8
712.099	11.27
712.542	11.24
712.985	11.3
713.427	11.23
713.87	11.31
714.313	11.56
714.755	11.41
715.198	11.54
715.64	11.4
716.083	11.83
716.525	11.47
716.967	12.04
717.41	11.68
717.852	11.18
718.295	11.45
718.737	11.54
719.179	11.57
719.621	11.67
720.063	11.79
720.506	12.11
720.948	11.44
721.39	11.51
721.832	11.77
722.274	12.06
722.716	11.72
723.158	11.63
723.6	11.59
724.042	11.74
724.484	11.37
724.926	12.39
725.368	11.61
725.81	11.84
726.251	12.04
726.693	11.86
727.135	11.98
727.577	11.95
728.018	11.58
728.46	11.43
728.902	11.5
729.343	11.95
729.785	11.64
730.226	12.25
730.668	11.67
731.109	11.78
731.551	12.02
731.992	12.29
732.434	12.08
732.875	11.75
733.316	12.13
733.758	12.41
734.199	12.13
734.64	12.01
735.081	11.8
735.523	11.83
735.964	12.29
736.405	12.29
736.846	11.56
737.287	11.94
737.728	11.99
738.169	12.69
738.61	11.77
739.051	12.42
739.492	12.05
739.933	12.32
740.374	12.27
740.815	12.15
741.256	11.98
741.696	12.26
742.137	12.05
742.578	12.07
743.019	12.13
743.459	12
743.9	12.67
744.341	12.72
744.781	12.81
745.222	12.2
745.662	12.41
746.103	12.39
746.543	12.03
746.984	12.46
747.424	12.44
747.865	12.37
748.305	12.48
748.745	12.6
749.186	12.48
749.626	12.35
750.066	12.75
750.506	12.68
750.947	12.22
751.387	12.56
751.827	12.9
752.267	12.28
752.707	12.84
753.147	12.6
753.587	12.83
754.027	12.5
754.467	13.05
754.907	12.65
755.347	12.67
755.787	12.74
756.227	13.28
756.667	12.8
757.107	12.92
757.546	12.8
757.986	12.76
758.426	12.51
758.865	12.42
759.305	12.94
759.745	12.84
760.184	13.29
760.624	12.95
761.063	13.13
761.503	12.89
761.943	13.42
762.382	12.67
762.821	13
763.261	13.42
763.7	12.98
764.14	12.5
764.579	13.08
765.018	13.46
765.457	13.27
765.897	13.11
766.336	12.99
766.775	13.06
767.214	12.96
767.653	13.39
768.092	13.02
768.531	13.18
768.97	13.46
769.409	13.26
769.848	13.05
770.287	13.31
770.726	13.63
771.165	13.25
771.604	13.21
772.043	13.42
772.482	13.64
772.92	13.66
773.359	12.95
773.798	13.55
774.237	12.95
774.675	13.6
775.114	13.29
775.553	13.51
775.991	13.75
776.43	13.86
776.868	13.1
777.307	14.02
777.745	13.73
778.184	13.47
778.622	13.77
779.06	13.28
779.499	13.66
779.937	13.4
780.375	13.35
780.814	13.95
781.252	13.82
781.69	13.8
782.128	13.88
782.566	13.28
783.004	13.95
783.443	13.78
783.881	13.41
784.319	13.85
784.757	14.11
785.195	14
785.633	13.6
786.071	13.93
786.508	13.53
786.946	13.78
787.384	13.73
787.822	13.95
788.26	13.78
788.697	13.61
789.135	14.17
789.573	13.77
790.011	13.56
790.448	14.1
790.886	13.91
791.323	14.11
791.761	13.84
792.198	14.13
792.636	13.92
793.073	14.13
793.511	13.93
793.948	14.32
794.386	13.94
794.823	14.03
795.26	14.06
795.698	14
796.135	14.32
796.572	14.32
797.009	13.65
797.446	14.27
797.884	14.39
798.321	14.19
798.758	14.39
799.195	14.77
799.632	14.22
800.069	14.17
800.506	14.06
800.943	14.27
801.38	14.21
801.817	14.22
802.254	14.61
802.69	14.62
803.127	14.45
803.564	14.5
804.001	14.48
804.438	14.62
804.874	14.41
805.311	14.29
805.748	14.49
806.184	14.61
806.621	14.54
807.057	14.64
807.494	14.56
807.93	14.6
808.367	14.66
808.803	14.65
809.24	14.59
809.676	14.9
810.112	14.81
810.549	14.92
810.985	15.06
811.421	14.84
811.857	14.72
812.294	14.96
812.73	15.02
813.166	14.73
813.602	14.68
814.038	15.16
814.474	14.67
814.91	14.84
815.346	14.9
815.782	14.79
816.218	14.81
816.654	15.18
817.09	14.82
817.526	14.89
817.962	14.89
818.398	14.98
818.833	15
819.269	14.88
819.705	15.36
820.141	14.98
820.576	14.56
821.012	15.27
821.447	15.42
821.883	15.19
822.319	15.4
822.754	14.86
823.19	15.18
823.625	15.15
824.061	15.19
824.496	15.35
824.931	15.22
825.367	15.28
825.802	14.88
826.237	15.36
826.673	15.25
827.108	15.04
827.543	15.57
827.978	15.42
828.413	15.07
828.849	15.49
829.284	15.28
829.719	15.28
830.154	15.14
830.589	15.45
831.024	15.39
831.459	15.54
831.894	15.61
832.329	15.59
832.763	15.25
833.198	15.63
833.633	16.12
834.068	15.53
