Data from JCR0014_PreoccularBrown_Reflection_00002.txt Node
Date: Thu Jul 23 15:03:35 ACST 2020
User: Stacey Dix
Spectrometer: MAYP113282
Scans to average: 1
Trigger mode: 0
Integration Time (sec): 1.000000E-1
Electric dark correction enabled: true
Boxcar width: 0
XAxis mode: Wavelengths
Number of Pixels in Spectrum: 2068
>>>>>Begin Spectral Data<<<<<
198.791	-2000
199.266	-0
199.74	114.29
200.215	-28.57
200.69	7.23
201.164	8
201.639	-11.27
202.114	24.11
202.588	17.28
203.063	3.01
203.537	-109.68
204.012	6.74
204.486	12.95
204.961	6.9
205.435	1.63
205.909	18.95
206.384	24.49
206.858	16.49
207.332	-34.78
207.807	-5.94
208.281	8.76
208.755	-3.6
209.229	-21.37
209.703	-27.03
210.177	3.42
210.651	21.9
211.126	-12.41
211.6	5.84
212.074	5.52
212.548	17.32
213.021	24.11
213.495	-4.88
213.969	-26.89
214.443	-29.46
214.917	0
215.391	-11.83
215.864	8.19
216.338	8.74
216.812	-7.19
217.286	5.97
217.759	-1.81
218.233	-19.58
218.706	-15.03
219.18	22.32
219.654	-1.01
220.127	-6.01
220.6	3.69
221.074	6.13
221.547	-12.99
222.021	2.6
222.494	-9.69
222.967	-15.16
223.441	-14.88
223.914	-6.1
224.387	13.97
224.86	2.49
225.334	6.34
225.807	-3.6
226.28	8.61
226.753	12.36
227.226	-1.43
227.699	3.73
228.172	0.46
228.645	-7.16
229.118	5.25
229.591	3.1
230.064	0.33
230.537	1.85
231.01	6.68
231.482	4.11
231.955	-5.78
232.428	-2.66
232.901	4.3
233.373	2.4
233.846	1.35
234.319	-2.76
234.791	5.04
235.264	3.87
235.736	4.03
236.209	2.82
236.681	-0.17
237.154	2.9
237.626	7.07
238.099	5.59
238.571	3.69
239.044	4.15
239.516	4.37
239.988	5.17
240.46	5.55
240.933	5.28
241.405	2.29
241.877	2.8
242.349	3.08
242.821	3.88
243.293	4.76
243.765	1.51
244.237	5.45
244.71	1.56
245.181	5.83
245.653	4.91
246.125	4.17
246.597	3.95
247.069	7.21
247.541	3.33
248.013	2.16
248.485	3.13
248.956	0.77
249.428	-0.23
249.9	5.81
250.371	2.58
250.843	3.57
251.315	1.49
251.786	2.55
252.258	2.97
252.729	4
253.201	0.5
253.672	2.4
254.144	2.03
254.615	2.56
255.086	2.58
255.558	2.86
256.029	1.58
256.5	3.22
256.972	4.33
257.443	1.82
257.914	2.83
258.385	2.43
258.856	1.38
259.327	3.36
259.799	3.72
260.27	1.12
260.741	3.4
261.212	2.87
261.683	2.65
262.154	3.15
262.624	3.49
263.095	1.29
263.566	2.83
264.037	1.82
264.508	4.46
264.979	1.39
265.449	1.43
265.92	2.22
266.391	1.58
266.861	3.23
267.332	3.33
267.803	1.89
268.273	1.93
268.744	2.3
269.214	3.17
269.685	3.63
270.155	-1.3
270.626	2.59
271.096	3.77
271.566	2.14
272.037	1.79
272.507	3.6
272.977	3.65
273.448	3.01
273.918	3.15
274.388	1.35
274.858	4.97
275.328	2.15
275.798	1.76
276.268	1.75
276.738	3.02
277.208	3.08
277.678	4.02
278.148	2.87
278.618	-0.83
279.088	1.42
279.558	-0.1
280.028	0.98
280.498	0.94
280.968	2.18
281.437	1.01
281.907	2.48
282.377	3.61
282.847	1.69
283.316	1.5
283.786	1.56
284.255	0.78
284.725	3.41
285.194	1.07
285.664	2.85
286.133	1.47
286.603	2.32
287.072	2.24
287.542	2.38
288.011	2.17
288.48	3.27
288.95	2.1
289.419	4.07
289.888	2.2
290.357	3.22
290.827	1.42
291.296	1.15
291.765	1.62
292.234	1.28
292.703	3.09
293.172	5.36
293.641	0.45
294.11	1.78
294.579	3.03
295.048	2.68
295.517	1.38
295.986	3.51
296.455	2.44
296.923	3.67
297.392	2.99
297.861	2.76
298.33	2.24
298.798	1.74
299.267	3.3
299.736	2.77
300.204	2.22
300.673	3.15
301.141	2.74
301.61	3.09
302.079	2.99
302.547	3.53
303.015	4.66
303.484	3.45
303.952	1.85
304.421	2.18
304.889	2.04
305.357	2.53
305.825	3.05
306.294	2.56
306.762	4.43
307.23	1.33
307.698	1.32
308.166	0.77
308.634	2.42
309.103	3.01
309.571	1.48
310.039	2.4
310.507	2.84
310.975	0.99
311.442	4.34
311.91	2.21
312.378	1.93
312.846	3.28
313.314	1.94
313.782	2.71
314.249	1.3
314.717	1.37
315.185	3.73
315.652	4.07
316.12	1.59
316.588	4.23
317.055	1.75
317.523	3.29
317.99	4.37
318.458	3.27
318.925	3.31
319.393	3.15
319.86	2.35
320.328	2.09
320.795	3.36
321.262	2.5
321.73	3.61
322.197	2.7
322.664	2.85
323.131	3.63
323.598	4.21
324.066	1.54
324.533	3.91
325	3.17
325.467	2.29
325.934	3.08
326.401	3.61
326.868	4.61
327.335	2.35
327.802	2.39
328.269	2.29
328.735	2
329.202	2.46
329.669	4.11
330.136	3.21
330.603	2.81
331.069	3.15
331.536	1.94
332.003	2.26
332.469	3.43
332.936	2.79
333.402	2.39
333.869	2.78
334.336	2.47
334.802	3.47
335.268	3.18
335.735	2.54
336.201	1.63
336.668	2.3
337.134	3.84
337.6	3.32
338.067	3.24
338.533	2.81
338.999	3.04
339.465	3.82
339.931	2.93
340.398	2.8
340.864	1.82
341.33	2.37
341.796	2.37
342.262	3.38
342.728	2.93
343.194	3.35
343.66	1.4
344.126	2.04
344.592	2
345.057	4.37
345.523	2.85
345.989	2.7
346.455	4.49
346.921	3.02
347.386	4.25
347.852	2.97
348.318	1.51
348.783	2.85
349.249	1.62
349.714	1.13
350.18	2.07
350.645	1.48
351.111	1.76
351.576	1.94
352.042	3.46
352.507	0.98
352.973	0.79
353.438	2.39
353.903	1.3
354.369	2.53
354.834	2.08
355.299	3.13
355.764	1.8
356.229	1.22
356.695	1.31
357.16	2.75
357.625	2.47
358.09	2.36
358.555	1.35
359.02	3.95
359.485	1.39
359.95	1.61
360.415	3.06
360.879	2.68
361.344	2.22
361.809	2.43
362.274	2.72
362.739	1.67
363.203	4.47
363.668	1.47
364.133	3.14
364.597	2.37
365.062	1.77
365.527	2.05
365.991	1.04
366.456	2.55
366.92	1.33
367.385	0.97
367.849	1.63
368.314	1.77
368.778	1.3
369.242	3.27
369.707	0.84
370.171	2.37
370.635	2.01
371.1	1.88
371.564	1.07
372.028	1.61
372.492	3.85
372.956	1.47
373.42	1.7
373.884	3.32
374.348	2.39
374.812	1.42
375.276	2.78
375.74	0.39
376.204	1.87
376.668	2.13
377.132	2.53
377.596	0.95
378.06	3.07
378.524	2.28
378.987	1.75
379.451	1.54
379.915	1.41
380.378	2.4
380.842	1.17
381.306	2.38
381.769	1.79
382.233	2.06
382.696	1.28
383.16	1.93
383.623	1.43
384.087	0.86
384.55	2.63
385.014	0.37
385.477	1.32
385.94	2.93
386.404	2.89
386.867	1.51
387.33	2.56
387.793	2.76
388.256	0.84
388.72	1.11
389.183	1.35
389.646	2.18
390.109	2.75
390.572	1.5
391.035	2.06
391.498	1.89
391.961	0.95
392.424	2.27
392.887	1.12
393.35	2.88
393.812	3.28
394.275	1.8
394.738	2.37
395.201	1.46
395.664	1.27
396.126	0.64
396.589	0.84
397.052	1.75
397.514	1.21
397.977	1.54
398.439	1.77
398.902	1.88
399.364	2.15
399.827	0.94
400.289	1.5
400.752	2.61
401.214	0.23
401.676	0.7
402.139	2.01
402.601	3.28
403.063	1.1
403.525	2.32
403.988	1.74
404.45	1.88
404.912	2.1
405.374	2.23
405.836	1.46
406.298	1.35
406.76	1.59
407.222	1.96
407.684	2.07
408.146	2.67
408.608	0.3
409.07	1.6
409.532	1.01
409.994	1.72
410.456	1.72
410.917	1.44
411.379	0.28
411.841	1.49
412.303	2.59
412.764	0.77
413.226	0.96
413.687	1.7
414.149	1.61
414.611	0.74
415.072	-0.16
415.534	0.42
415.995	1.63
416.457	0.56
416.918	1.54
417.379	1.74
417.841	1.62
418.302	1.79
418.763	2.34
419.225	1.4
419.686	1.14
420.147	0.92
420.608	1.4
421.069	1.03
421.53	1.27
421.991	1.77
422.453	1.67
422.914	2.54
423.375	1.34
423.836	1.2
424.297	3.4
424.757	1.28
425.218	2.5
425.679	1.12
426.14	1.96
426.601	2.98
427.062	1.81
427.522	1.68
427.983	2.03
428.444	1.75
428.904	2.01
429.365	0.78
429.826	-0.49
430.286	0.28
430.747	2.1
431.207	1.56
431.668	-0.66
432.128	0.22
432.589	1.33
433.049	0.11
433.509	-1
433.97	0.42
434.43	1.07
434.89	0.3
435.351	1.36
435.811	0.95
436.271	2.65
436.731	0.64
437.191	0.98
437.651	2.04
438.112	1.34
438.572	2.36
439.032	1.53
439.492	1.75
439.952	2.75
440.412	-0.38
440.871	1.99
441.331	1.81
441.791	-0.29
442.251	0.8
442.711	2.7
443.171	1.53
443.63	4.1
444.09	1.93
444.55	0.88
445.009	2.53
445.469	0.27
445.929	-0.18
446.388	2.46
446.848	1.74
447.307	2.14
447.767	2.39
448.226	-0.95
448.686	-0.25
449.145	0
449.604	0.92
450.064	2.45
450.523	2.94
450.982	2.07
451.442	0.25
451.901	0.5
452.36	-1.03
452.819	2.2
453.278	1.98
453.737	2.17
454.197	-0.26
454.656	0.86
455.115	3.31
455.574	1.17
456.033	1.91
456.492	0.93
456.95	0.91
457.409	-0.18
457.868	2.66
458.327	4.39
458.786	0.18
459.245	1.38
459.703	1.19
460.162	3.32
460.621	0.47
461.079	0.84
461.538	0.98
461.997	2.44
462.455	1.7
462.914	1.08
463.372	1.17
463.831	-0.31
464.289	1.94
464.748	2.03
465.206	0.8
465.664	3
466.123	3.86
466.581	-0.62
467.039	1.48
467.497	3
467.956	1.96
468.414	1.79
468.872	2.55
469.33	0.22
469.788	2.45
470.246	1.11
470.704	2.5
471.162	3.52
471.62	3.71
472.078	1.19
472.536	0.66
472.994	-2.37
473.452	4.95
473.91	1.45
474.368	3.42
474.826	0.11
475.283	0.97
475.741	-0.33
476.199	0.33
476.656	0.53
477.114	2.13
477.572	3.32
478.029	0.11
478.487	-0.32
478.944	2.77
479.402	-0.84
479.859	1.04
480.317	1.62
480.774	-0.23
481.232	-0.43
481.689	4.31
482.146	2.52
482.604	3.26
483.061	1.84
483.518	1.36
483.975	1.54
484.433	1.16
484.89	-0.33
485.347	3.04
485.804	-0.11
486.261	2.02
486.718	0.43
487.175	-1.89
487.632	1.21
488.089	5.2
488.546	1.6
489.003	2.17
489.46	2.03
489.917	2.79
490.373	4.18
490.83	2.92
491.287	1.79
491.744	2.23
492.2	1.54
492.657	4.41
493.114	0.55
493.57	3.21
494.027	5.87
494.484	0.64
494.94	2.39
495.397	2.12
495.853	3.29
496.31	0.88
496.766	3.2
497.222	3.67
497.679	2.61
498.135	2.5
498.591	0.93
499.048	3.42
499.504	-0.11
499.96	1.74
500.416	1.13
500.872	0.92
501.329	2.45
501.785	2.1
502.241	0.39
502.697	4.28
503.153	0.91
503.609	3.68
504.065	0.78
504.521	2.85
504.977	2.29
505.432	1.9
505.888	2.1
506.344	4.12
506.8	0.28
507.256	2.89
507.711	3.06
508.167	3.36
508.623	4.93
509.078	2.36
509.534	5.16
509.99	4.55
510.445	4.38
510.901	2.48
511.356	2.34
511.812	3.46
512.267	4.57
512.722	4.24
513.178	3
513.633	4.11
514.089	1.88
514.544	3.61
514.999	4.1
515.454	2.48
515.91	3.28
516.365	5.5
516.82	3.46
517.275	2.19
517.73	4.29
518.185	1.57
518.64	3.78
519.095	4.25
519.55	3.96
520.005	4.71
520.46	4.34
520.915	3.97
521.37	3.9
521.825	3.07
522.28	2.71
522.734	3.68
523.189	3.82
523.644	2.83
524.099	3.36
524.553	1.61
525.008	2.71
525.462	3.3
525.917	5.98
526.372	2.89
526.826	3.4
527.281	3.66
527.735	4.05
528.19	4.2
528.644	2.95
529.098	6.25
529.553	5.07
530.007	3.9
530.461	4.59
530.916	2.86
531.37	4.53
531.824	4.85
532.278	3.81
532.732	3.24
533.186	3.89
533.641	3.55
534.095	4.02
534.549	3.59
535.003	4.46
535.457	4.01
535.911	3.56
536.365	5.81
536.818	4.39
537.272	4.05
537.726	5.87
538.18	2.6
538.634	4.9
539.087	3.56
539.541	2.37
539.995	4.57
540.449	6.97
540.902	3.01
541.356	2.99
541.809	6.75
542.263	2.73
542.716	5.98
543.17	3.89
543.623	4.61
544.077	2.94
544.53	5.22
544.984	5.96
545.437	3.38
545.89	3.34
546.344	2.94
546.797	3.31
547.25	5.46
547.703	2.83
548.157	5.45
548.61	2.73
549.063	3.43
549.516	6.21
549.969	4.07
550.422	4.33
550.875	4.75
551.328	2.63
551.781	3.37
552.234	4.29
552.687	4.56
553.14	2.78
553.592	5.45
554.045	3.98
554.498	4
554.951	5.25
555.404	3.89
555.856	4.4
556.309	4.55
556.762	4.8
557.214	5.93
557.667	5.41
558.119	5.1
558.572	5.44
559.024	6.1
559.477	5.54
559.929	3.81
560.382	4.01
560.834	5.16
561.286	3.27
561.739	5.99
562.191	3.81
562.643	5.09
563.095	5.25
563.548	4.44
564	6.56
564.452	5.24
564.904	5.76
565.356	5.02
565.808	6.16
566.26	6.49
566.712	5.71
567.164	4.63
567.616	5.23
568.068	4.45
568.52	4.03
568.972	5.19
569.424	6.32
569.876	4.44
570.327	5.17
570.779	5.37
571.231	5.18
571.682	5.87
572.134	4.05
572.586	4
573.037	5.7
573.489	6.86
573.941	5.93
574.392	5.42
574.844	5.83
575.295	5.7
575.746	5.62
576.198	6.44
576.649	5.63
577.101	6.54
577.552	6.12
578.003	6.02
578.454	5.14
578.906	5.49
579.357	6.01
579.808	6.69
580.259	5.67
580.71	5.35
581.161	6.41
581.612	5.08
582.064	5.28
582.515	5.75
582.965	6.43
583.416	5.75
583.867	5.67
584.318	5.28
584.769	6.04
585.22	5.55
585.671	5.33
586.122	4.81
586.572	6.75
587.023	5.83
587.474	5.62
587.924	4.62
588.375	5.3
588.826	5.72
589.276	4.53
589.727	6.81
590.177	5.79
590.628	4.57
591.078	7.39
591.529	7.23
591.979	6.68
592.429	6.11
592.88	5.71
593.33	6.81
593.78	5.32
594.231	5.51
594.681	5.04
595.131	6.86
595.581	6.68
596.031	4.15
596.481	5.1
596.932	6.73
597.382	7.37
597.832	5.91
598.282	5.74
598.732	5.88
599.182	6.79
599.632	6.51
600.081	6.71
600.531	5.87
600.981	5.87
601.431	4.76
601.881	6.02
602.33	5.07
602.78	5.86
603.23	6.78
603.679	6.17
604.129	5.99
604.579	5.14
605.028	5.58
605.478	5.4
605.927	6.79
606.377	6.3
606.826	6.45
607.276	6.18
607.725	5.84
608.175	6.01
608.624	6.12
609.073	4.79
609.522	5.33
609.972	6.34
610.421	6.15
610.87	6.65
611.319	6.53
611.768	7
612.218	6.07
612.667	7
613.116	6.37
613.565	5.9
614.014	5.41
614.463	6.55
614.912	6.24
615.361	6.48
615.81	6.43
616.258	6.01
616.707	6.67
617.156	7.84
617.605	6.82
618.054	7.18
618.502	6.72
618.951	6.17
619.4	6.7
619.848	6.19
620.297	7.39
620.745	6.69
621.194	6.65
621.642	6.71
622.091	7.21
622.539	7.01
622.988	7.38
623.436	6.82
623.885	6.23
624.333	7.28
624.781	6.62
625.23	6.34
625.678	6.08
626.126	6.09
626.574	7.19
627.022	6.22
627.471	7.17
627.919	7.85
628.367	6.87
628.815	7.3
629.263	7.06
629.711	7.66
630.159	6.92
630.607	6.67
631.055	7.05
631.503	6.97
631.95	6.49
632.398	7.69
632.846	6.39
633.294	7.64
633.742	7.09
634.189	7.23
634.637	7.55
635.085	7.62
635.532	6.18
635.98	7.8
636.427	6.32
636.875	7.33
637.323	6.16
637.77	7.48
638.217	7.14
638.665	6.77
639.112	7.44
639.56	7.61
640.007	7.06
640.454	7.28
640.902	7.78
641.349	7.36
641.796	6.7
642.243	7.48
642.69	6.89
643.138	6.75
643.585	7.4
644.032	7.02
644.479	6.76
644.926	6.82
645.373	7.04
645.82	8.02
646.267	8.13
646.714	6.55
647.161	7.94
647.607	7.12
648.054	7.48
648.501	7.13
648.948	7.89
649.395	6.85
649.841	6.82
650.288	8
650.735	7.74
651.181	7.28
651.628	7.27
652.075	7.24
652.521	7.44
652.968	6.6
653.414	7.86
653.861	7.75
654.307	7.52
654.753	7.46
655.2	8.33
655.646	7.88
656.092	7.59
656.539	6.76
656.985	7.49
657.431	7.73
657.877	7.56
658.324	7.24
658.77	8.03
659.216	7.25
659.662	7.23
660.108	7.46
660.554	7.35
661	7.05
661.446	7.49
661.892	7.55
662.338	7.65
662.784	7.72
663.23	7.24
663.675	8.13
664.121	7.55
664.567	7.78
665.013	7.34
665.458	7.57
665.904	8.14
666.35	7.38
666.795	7.87
667.241	8.31
667.687	6.88
668.132	8.01
668.578	7.43
669.023	8.14
669.469	7.79
669.914	8.48
670.359	8.27
670.805	7.98
671.25	8.97
671.695	8.28
672.141	7.71
672.586	8.28
673.031	7.6
673.476	7.77
673.922	8.35
674.367	7.63
674.812	8.49
675.257	7.82
675.702	8.01
676.147	8.58
676.592	8.29
677.037	7.85
677.482	8.05
677.927	8.32
678.372	8.73
678.817	8.34
679.261	7.76
679.706	8.13
680.151	7.54
680.596	8.56
681.04	8.05
681.485	7.48
681.93	7.52
682.374	8.83
682.819	8.18
683.264	9.14
683.708	8.48
684.153	8.71
684.597	8.93
685.042	8.99
685.486	8.42
685.93	7.8
686.375	8.74
686.819	8.26
687.263	8.51
687.708	7.4
688.152	8.66
688.596	7.91
689.04	8.18
689.485	8.14
689.929	8.9
690.373	8.8
690.817	8.57
691.261	8.5
691.705	8.56
692.149	8.3
692.593	8.81
693.037	8.38
693.481	8.59
693.925	8.43
694.369	8.27
694.812	8.55
695.256	8.66
695.7	8.47
696.144	8.38
696.587	8.09
697.031	8.47
697.475	8.58
697.918	8.67
698.362	8.74
698.806	8.57
699.249	8.71
699.693	8.12
700.136	8.7
700.58	8.47
701.023	8.56
701.466	9.3
701.91	9.02
702.353	9.11
702.796	8.6
703.24	8.79
703.683	8.7
704.126	9.46
704.569	8.92
705.013	8.7
705.456	9.04
705.899	8.76
706.342	8.79
706.785	9.39
707.228	8.37
707.671	8.96
708.114	8.73
708.557	9.18
709	9.49
709.443	8.92
709.886	8.56
710.328	9.19
710.771	8.88
711.214	9.22
711.657	8.96
712.099	8.77
712.542	8.96
712.985	9.3
713.427	9.31
713.87	8.2
714.313	9.02
714.755	8.71
715.198	8.63
715.64	9.07
716.083	9.36
716.525	9.3
716.967	8.51
717.41	9.2
717.852	9.27
718.295	9.15
718.737	8.99
719.179	9.45
719.621	9.13
720.063	9.12
720.506	9.58
720.948	8.89
721.39	9.65
721.832	9.36
722.274	9.38
722.716	9.21
723.158	9.05
723.6	8.89
724.042	8.71
724.484	9.33
724.926	9.2
725.368	8.92
725.81	9.35
726.251	8.71
726.693	9.38
727.135	8.75
727.577	8.7
728.018	9.63
728.46	9.37
728.902	9.11
729.343	9.34
729.785	8.96
730.226	9.5
730.668	9.44
731.109	10.1
731.551	8.79
731.992	9.98
732.434	9.3
732.875	9.22
733.316	9.56
733.758	9.72
734.199	9.24
734.64	9.53
735.081	9.64
735.523	9.72
735.964	9.5
736.405	9.39
736.846	9.57
737.287	9.77
737.728	9.14
738.169	9.56
738.61	8.71
739.051	9.24
739.492	9.6
739.933	9.63
740.374	9.23
740.815	10.28
741.256	9.54
741.696	9.47
742.137	10.24
742.578	9.94
743.019	9.32
743.459	9.66
743.9	8.95
744.341	9.94
744.781	10.13
745.222	9.33
745.662	10.09
746.103	10.07
746.543	9.66
746.984	9.27
747.424	10.07
747.865	10.66
748.305	9.94
748.745	9.66
749.186	9.24
749.626	10.04
750.066	9.26
750.506	10.3
750.947	10.17
751.387	9.56
751.827	9.74
752.267	9.61
752.707	9.57
753.147	9.41
753.587	9.83
754.027	10.09
754.467	9.94
754.907	10.01
755.347	9.51
755.787	10.34
756.227	9.92
756.667	9.56
757.107	10.39
757.546	10.43
757.986	9.84
758.426	9.56
758.865	10.32
759.305	10.3
759.745	10.09
760.184	10.13
760.624	10.12
761.063	10.91
761.503	10.39
761.943	10.03
762.382	10.23
762.821	10.2
763.261	10.15
763.7	10.08
764.14	10.31
764.579	10.72
765.018	10.3
765.457	10.07
765.897	10.35
766.336	10.18
766.775	10.59
767.214	10.18
767.653	10.37
768.092	10.49
768.531	10.06
768.97	10.77
769.409	10.27
769.848	9.86
770.287	10.71
770.726	10.55
771.165	9.99
771.604	10.7
772.043	10.27
772.482	9.97
772.92	9.99
773.359	10.22
773.798	10.52
774.237	10.69
774.675	10.97
775.114	10.32
775.553	10.73
775.991	10.61
776.43	10.89
776.868	10.93
777.307	10.76
777.745	10.01
778.184	10.67
778.622	10.66
779.06	11.03
779.499	10.45
779.937	10.2
780.375	11.07
780.814	10.25
781.252	10.3
781.69	10.78
782.128	10.94
782.566	10.42
783.004	10.69
783.443	10.81
783.881	10.8
784.319	10.98
784.757	10.83
785.195	11.04
785.633	10.82
786.071	11.14
786.508	11.14
786.946	10.52
787.384	10.71
787.822	10.71
788.26	11
788.697	10.85
789.135	10.81
789.573	11
790.011	11.08
790.448	10.58
790.886	10.91
791.323	10.55
791.761	11.23
792.198	11.55
792.636	10.84
793.073	11.21
793.511	10.67
793.948	10.71
794.386	11.51
794.823	10.45
795.26	11.12
795.698	10.68
796.135	11
796.572	10.69
797.009	10.96
797.446	11
797.884	10.86
798.321	11.63
798.758	11.55
799.195	11.43
799.632	11.51
800.069	11.15
800.506	11.24
800.943	11.42
801.38	11.04
801.817	11.05
802.254	11.08
802.69	11.14
803.127	11.38
803.564	11.05
804.001	10.91
804.438	11.23
804.874	11.03
805.311	11.04
805.748	11.33
806.184	11.52
806.621	11.38
807.057	11.97
807.494	11.58
807.93	10.85
808.367	11.38
808.803	11.47
809.24	11.64
809.676	11.18
810.112	11.11
810.549	11.26
810.985	11.63
811.421	11.96
811.857	11.95
812.294	11.14
812.73	11.14
813.166	11.82
813.602	11.24
814.038	11.42
814.474	11.31
814.91	11.49
815.346	11.14
815.782	11.31
816.218	11.81
816.654	11.73
817.09	11.76
817.526	11.45
817.962	11.8
818.398	11.55
818.833	11.83
819.269	11.86
819.705	11.18
820.141	11.84
820.576	11.92
821.012	12.09
821.447	11.47
821.883	11.75
822.319	11.55
822.754	11.31
823.19	12.02
823.625	11.51
824.061	11.35
824.496	12.47
824.931	11.34
825.367	11.77
825.802	11.69
826.237	11.53
826.673	12
827.108	11.6
827.543	12.19
827.978	12.32
828.413	12.22
828.849	12.17
829.284	12.01
829.719	11.89
830.154	11.79
830.589	11.74
831.024	11.88
831.459	11.41
831.894	12.29
832.329	11.58
832.763	11.97
833.198	11.93
833.633	11.97
834.068	12.56
834.503	11.83
834.937	11.9
835.372	12.04
835.807	11.97
836.241	11.82
836.676	12.52
837.111	12.06
837.545	11.75
837.98	12.07
838.414	11.69
838.849	11.6
