Data from JCR0017_Black1_Reflection_00003.txt Node
Date: Thu Jul 23 16:13:14 ACST 2020
User: Stacey Dix
Spectrometer: MAYP113282
Scans to average: 1
Trigger mode: 0
Integration Time (sec): 1.000000E-1
Electric dark correction enabled: true
Boxcar width: 0
XAxis mode: Wavelengths
Number of Pixels in Spectrum: 2068
>>>>>Begin Spectral Data<<<<<
198.791	108.33
199.266	516.67
199.74	108.33
200.215	0
200.69	-17.58
201.164	10.09
201.639	13.37
202.114	7.29
202.588	-7.35
203.063	11.82
203.537	15.61
204.012	21.51
204.486	15.32
204.961	2.66
205.435	0.16
205.909	9.01
206.384	5.39
206.858	-3.58
207.332	15.09
207.807	1.82
208.281	18.03
208.755	3.83
209.229	-5.99
209.703	21.02
210.177	6.05
210.651	-15.97
211.126	11.98
211.6	-3.18
212.074	6.19
212.548	16.46
213.021	5.34
213.495	10.76
213.969	2.72
214.443	0.09
214.917	11.66
215.391	15.19
215.864	0.68
216.338	12.25
216.812	6.32
217.286	-0.92
217.759	13.88
218.233	21.06
218.706	13.91
219.18	8.2
219.654	10.71
220.127	9.91
220.6	15.33
221.074	10.06
221.547	5.9
222.021	10.08
222.494	6.2
222.967	8.42
223.441	4.8
223.914	14.22
224.387	6.01
224.86	16.29
225.334	6.62
225.807	6.38
226.28	9.25
226.753	7.71
227.226	10.99
227.699	11.83
228.172	8.54
228.645	13.5
229.118	7.91
229.591	8.44
230.064	9.14
230.537	9.12
231.01	11.68
231.482	8.76
231.955	8
232.428	8.23
232.901	6.78
233.373	10.01
233.846	8.27
234.319	8.73
234.791	8.09
235.264	7.85
235.736	7.85
236.209	9.4
236.681	8.67
237.154	7.58
237.626	8.64
238.099	7.82
238.571	9.69
239.044	8.59
239.516	8.7
239.988	8.69
240.46	9.09
240.933	7.11
241.405	7.5
241.877	7.25
242.349	8.6
242.821	8.1
243.293	7.46
243.765	7.1
244.237	8.31
244.71	7.42
245.181	7.09
245.653	8.25
246.125	7.76
246.597	7.16
247.069	7.98
247.541	8.26
248.013	7.03
248.485	8.27
248.956	8.07
249.428	5.8
249.9	7.31
250.371	7.73
250.843	7.06
251.315	7.31
251.786	8.39
252.258	6.88
252.729	6.86
253.201	7.34
253.672	6.69
254.144	5.97
254.615	6.7
255.086	6.56
255.558	6.59
256.029	6.46
256.5	7.42
256.972	6.63
257.443	6.62
257.914	6.9
258.385	6.79
258.856	7.16
259.327	6.53
259.799	7.18
260.27	6.55
260.741	7.02
261.212	6.63
261.683	6.56
262.154	6.51
262.624	7.08
263.095	7.16
263.566	7.61
264.037	6.61
264.508	6.3
264.979	6.31
265.449	6.47
265.92	6.7
266.391	6.56
266.861	6.79
267.332	6.91
267.803	6.57
268.273	6.96
268.744	6.28
269.214	6.33
269.685	6.27
270.155	7.32
270.626	6.84
271.096	7.8
271.566	6.43
272.037	6.25
272.507	6.54
272.977	6.64
273.448	5.8
273.918	7.04
274.388	7.31
274.858	5.79
275.328	6.92
275.798	6.72
276.268	5.98
276.738	6.64
277.208	6.5
277.678	6.96
278.148	6.66
278.618	5.55
279.088	6.41
279.558	6.49
280.028	6.49
280.498	6.92
280.968	6.88
281.437	7.02
281.907	7.26
282.377	6.31
282.847	6.49
283.316	6.72
283.786	5.9
284.255	6.64
284.725	5.69
285.194	7.32
285.664	6.69
286.133	6.46
286.603	6.54
287.072	6.5
287.542	7
288.011	6.8
288.48	6.2
288.95	6.62
289.419	6.72
289.888	6.85
290.357	6.85
290.827	7.15
291.296	6.83
291.765	6.25
292.234	6.16
292.703	5.83
293.172	6.14
293.641	6.88
294.11	6.11
294.579	6.24
295.048	6.88
295.517	6.24
295.986	6.78
296.455	6.88
296.923	5.92
297.392	6.29
297.861	5.6
298.33	6.06
298.798	5.94
299.267	6.18
299.736	6.3
300.204	5.4
300.673	6.33
301.141	6.74
301.61	6.54
302.079	6.41
302.547	6.3
303.015	6.09
303.484	5.37
303.952	6.91
304.421	6.04
304.889	6.75
305.357	5.99
305.825	5.69
306.294	6.23
306.762	6.18
307.23	6.02
307.698	5.88
308.166	5.2
308.634	5.8
309.103	5.52
309.571	5.55
310.039	5.78
310.507	5.26
310.975	5.5
311.442	5.88
311.91	5.34
312.378	5.64
312.846	5.07
313.314	5.46
313.782	4.98
314.249	6.54
314.717	5.71
315.185	6.08
315.652	5.42
316.12	5.75
316.588	5.87
317.055	5.39
317.523	5.21
317.99	5.89
318.458	6.09
318.925	5.28
319.393	4.75
319.86	4.69
320.328	5.46
320.795	4.59
321.262	5.25
321.73	5.88
322.197	5.68
322.664	4.91
323.131	4.97
323.598	4.8
324.066	5.29
324.533	5.07
325	5.13
325.467	5.26
325.934	5.07
326.401	4.77
326.868	4.3
327.335	5.79
327.802	5.22
328.269	4.85
328.735	5.04
329.202	5.36
329.669	4.91
330.136	4.82
330.603	4.52
331.069	4.48
331.536	4.71
332.003	4.4
332.469	4.55
332.936	5
333.402	4.73
333.869	4.92
334.336	3.74
334.802	4.81
335.268	4.55
335.735	5.3
336.201	4.94
336.668	5.1
337.134	4.27
337.6	3.33
338.067	5.07
338.533	4.69
338.999	4.64
339.465	4.94
339.931	5.12
340.398	5.08
340.864	4.18
341.33	4.3
341.796	4.02
342.262	4.53
342.728	4.02
343.194	4.36
343.66	4.61
344.126	4.86
344.592	3.7
345.057	5.09
345.523	4.03
345.989	3.9
346.455	4.46
346.921	4.41
347.386	4.48
347.852	3.86
348.318	4.1
348.783	4.34
349.249	4.14
349.714	4.06
350.18	4.83
350.645	3.49
351.111	4.88
351.576	4.41
352.042	3.88
352.507	3.87
352.973	4.04
353.438	4.32
353.903	4.06
354.369	3.85
354.834	4.06
355.299	4.96
355.764	3.98
356.229	3.98
356.695	3.84
357.16	3.94
357.625	4.22
358.09	4.07
358.555	4.6
359.02	3.56
359.485	3.88
359.95	4.46
360.415	4.19
360.879	4.01
361.344	3.12
361.809	3.27
362.274	3.73
362.739	3.75
363.203	4.06
363.668	3.87
364.133	3.89
364.597	4.42
365.062	3.7
365.527	3.03
365.991	4.23
366.456	4.05
366.92	3.91
367.385	3.39
367.849	3.44
368.314	3.53
368.778	3.55
369.242	3.62
369.707	3.67
370.171	3.58
370.635	3.61
371.1	4.01
371.564	3.31
372.028	4.01
372.492	4.41
372.956	3.38
373.42	3.38
373.884	3.89
374.348	3.63
374.812	3.33
375.276	4.19
375.74	3.49
376.204	3.8
376.668	3.73
377.132	2.91
377.596	3.09
378.06	3.73
378.524	3.31
378.987	3.46
379.451	3.06
379.915	3.57
380.378	4.03
380.842	3.67
381.306	4.09
381.769	3.63
382.233	3.56
382.696	3.39
383.16	3.24
383.623	4.03
384.087	3.13
384.55	3.83
385.014	3.85
385.477	3.18
385.94	4.13
386.404	3.81
386.867	3.36
387.33	4.07
387.793	3.29
388.256	3.77
388.72	4.25
389.183	3
389.646	3.53
390.109	3.61
390.572	3.69
391.035	4.17
391.498	3.62
391.961	2.94
392.424	3.58
392.887	3.55
393.35	3.21
393.812	3.49
394.275	3.43
394.738	3.58
395.201	3.5
395.664	3.08
396.126	3.22
396.589	4
397.052	3.24
397.514	3.48
397.977	3.78
398.439	3.59
398.902	3.29
399.364	3.27
399.827	2.96
400.289	3.84
400.752	3.63
401.214	3.61
401.676	3.41
402.139	3.76
402.601	2.99
403.063	3.42
403.525	3.47
403.988	2.85
404.45	3.52
404.912	3.59
405.374	2.85
405.836	3.7
406.298	3.66
406.76	3.02
407.222	3.29
407.684	3.41
408.146	3.57
408.608	4.14
409.07	3.52
409.532	2.9
409.994	3.16
410.456	3.36
410.917	3.45
411.379	3.69
411.841	3.35
412.303	3.43
412.764	3.2
413.226	3.53
413.687	3.16
414.149	2.85
414.611	3.29
415.072	3.02
415.534	3.71
415.995	3.31
416.457	2.65
416.918	3.23
417.379	3.07
417.841	3.13
418.302	3.59
418.763	3.34
419.225	3.73
419.686	3.09
420.147	3.18
420.608	3.94
421.069	3.08
421.53	2.99
421.991	3.35
422.453	3.51
422.914	3.71
423.375	2.84
423.836	2.63
424.297	3.29
424.757	3.69
425.218	3.44
425.679	3.05
426.14	3.17
426.601	3.08
427.062	2.92
427.522	3.17
427.983	2.76
428.444	3.84
428.904	3.19
429.365	2.32
429.826	3.31
430.286	3.55
430.747	4.18
431.207	3.25
431.668	3.44
432.128	3.48
432.589	3.43
433.049	3.03
433.509	3.26
433.97	3.11
434.43	3.59
434.89	2.86
435.351	3.57
435.811	3.45
436.271	2.58
436.731	3.88
437.191	3.99
437.651	2.88
438.112	3.13
438.572	1.57
439.032	2.94
439.492	4.66
439.952	2.51
440.412	3.69
440.871	3.32
441.331	3.53
441.791	3.19
442.251	4.16
442.711	3.03
443.171	3.29
443.63	3.18
444.09	2.94
444.55	3.66
445.009	3.18
445.469	3.75
445.929	2.99
446.388	4.02
446.848	3.34
447.307	3.38
447.767	3.7
448.226	3.74
448.686	3.2
449.145	2.93
449.604	3.3
450.064	3.12
450.523	3.11
450.982	3.85
451.442	2.48
451.901	3.04
452.36	3.3
452.819	3.04
453.278	3.53
453.737	2.9
454.197	2.67
454.656	2.72
455.115	2.53
455.574	2.92
456.033	3.4
456.492	2.88
456.95	3.56
457.409	3.46
457.868	3.79
458.327	3.03
458.786	2.59
459.245	3.53
459.703	2.63
460.162	3.49
460.621	3.39
461.079	2.41
461.538	2.99
461.997	2.69
462.455	2.85
462.914	2.81
463.372	3.58
463.831	4
464.289	2.93
464.748	3.11
465.206	3.94
465.664	3.21
466.123	3.58
466.581	2.63
467.039	3.76
467.497	3.03
467.956	3.74
468.414	1.79
468.872	3.17
469.33	2.95
469.788	3.39
470.246	2.88
470.704	4.66
471.162	2.54
471.62	3.96
472.078	3.42
472.536	3.72
472.994	3.95
473.452	4.01
473.91	3.99
474.368	3.34
474.826	3.36
475.283	2.83
475.741	3.36
476.199	2.81
476.656	3.53
477.114	2.51
477.572	2.18
478.029	2.95
478.487	3.15
478.944	2.87
479.402	2.92
479.859	3.15
480.317	1.85
480.774	4.9
481.232	3.06
481.689	2.65
482.146	3.7
482.604	2.21
483.061	2.44
483.518	3.43
483.975	4.19
484.433	2.06
484.89	2.21
485.347	3.83
485.804	3.45
486.261	1.37
486.718	4.05
487.175	3.79
487.632	2.96
488.089	2.28
488.546	3.19
489.003	3.56
489.46	3.41
489.917	2.39
490.373	3.85
490.83	2.05
491.287	3.14
491.744	3.2
492.2	2.96
492.657	3.3
493.114	3.72
493.57	2.18
494.027	3.52
494.484	3.13
494.94	2.85
495.397	3.24
495.853	3.28
496.31	3.9
496.766	3.37
497.222	3.5
497.679	3.59
498.135	3.1
498.591	3.32
499.048	3.15
499.504	1.68
499.96	2.21
500.416	5.09
500.872	3.52
501.329	2.3
501.785	2.75
502.241	2.86
502.697	3.03
503.153	2.22
503.609	2.85
504.065	3.7
504.521	3.26
504.977	3.01
505.432	3.2
505.888	3.68
506.344	2.69
506.8	3.33
507.256	3.3
507.711	4.01
508.167	2.4
508.623	2.01
509.078	2.39
509.534	3.19
509.99	3.25
510.445	3.73
510.901	3.53
511.356	3.67
511.812	3.68
512.267	3.28
512.722	3.44
513.178	3.58
513.633	2.51
514.089	3.09
514.544	4.04
514.999	2.87
515.454	2.51
515.91	2.97
516.365	3
516.82	2.97
517.275	3.53
517.73	3.27
518.185	2.59
518.64	3.29
519.095	3.2
519.55	3.23
520.005	3.4
520.46	4.15
520.915	2.87
521.37	3.79
521.825	2.7
522.28	3.46
522.734	2.78
523.189	3.57
523.644	3.18
524.099	3.84
524.553	3.35
525.008	3.64
525.462	3.56
525.917	3.61
526.372	3.48
526.826	3.58
527.281	2.58
527.735	3.16
528.19	2.88
528.644	3.16
529.098	3.7
529.553	3.72
530.007	4.2
530.461	3.01
530.916	3.59
531.37	4.38
531.824	3.36
532.278	2.79
532.732	3.25
533.186	3.15
533.641	4.27
534.095	3.22
534.549	3.96
535.003	2.98
535.457	3.6
535.911	3.42
536.365	2.65
536.818	3.74
537.272	2.23
537.726	3.52
538.18	3.54
538.634	2.21
539.087	3.03
539.541	2.97
539.995	2.85
540.449	3.73
540.902	3.77
541.356	2.57
541.809	2.8
542.263	2.25
542.716	3.6
543.17	2.18
543.623	3.31
544.077	3.02
544.53	2.93
544.984	4.05
545.437	2.66
545.89	3.31
546.344	4.02
546.797	2.41
547.25	3.77
547.703	2.49
548.157	3.94
548.61	2.62
549.063	4.86
549.516	2.18
549.969	3.29
550.422	3.18
550.875	3.41
551.328	2.7
551.781	3.02
552.234	2.59
552.687	2.47
553.14	3.3
553.592	3.43
554.045	3.42
554.498	3.62
554.951	3.26
555.404	3.74
555.856	2.65
556.309	3.18
556.762	2.86
557.214	3.96
557.667	3.69
558.119	3.54
558.572	2.29
559.024	2.85
559.477	3.6
559.929	3.51
560.382	3.72
560.834	3.3
561.286	2.91
561.739	3.13
562.191	3.95
562.643	2.99
563.095	4.48
563.548	3.07
564	3.76
564.452	3.28
564.904	3.4
565.356	3.08
565.808	3.42
566.26	3.41
566.712	3.19
567.164	3.3
567.616	3.64
568.068	3.51
568.52	3.37
568.972	4.05
569.424	3.83
569.876	3.13
570.327	3.02
570.779	3.94
571.231	3.74
571.682	4.03
572.134	2.96
572.586	3.43
573.037	2.79
573.489	4.01
573.941	3.24
574.392	3.55
574.844	2.78
575.295	3.4
575.746	3.62
576.198	3.14
576.649	3.05
577.101	3.86
577.552	3.04
578.003	3.11
578.454	3.58
578.906	3.27
579.357	2.51
579.808	3.89
580.259	3.46
580.71	3.31
581.161	3.44
581.612	3.86
582.064	3.25
582.515	3.61
582.965	3.66
583.416	3.78
583.867	3.04
584.318	3.3
584.769	3.76
585.22	3.18
585.671	2.77
586.122	2.86
586.572	3.52
587.023	3.66
587.474	3.44
587.924	3.3
588.375	2.95
588.826	2.73
589.276	3.86
589.727	3.62
590.177	3.71
590.628	3.45
591.078	3.08
591.529	3.71
591.979	3.97
592.429	3.36
592.88	3.46
593.33	3.44
593.78	3.63
594.231	3.48
594.681	2.88
595.131	3.32
595.581	3.68
596.031	3.12
596.481	3.37
596.932	3.34
597.382	3.36
597.832	3.18
598.282	3.44
598.732	3.73
599.182	3.12
599.632	3.37
600.081	3.46
600.531	3.17
600.981	3.2
601.431	3.5
601.881	3.44
602.33	3.21
602.78	3.88
603.23	3.53
603.679	3.33
604.129	2.88
604.579	3.3
605.028	3.32
605.478	3.63
605.927	3.22
606.377	3.71
606.826	3.61
607.276	3.05
607.725	3.63
608.175	3.7
608.624	3.47
609.073	3.3
609.522	3.34
609.972	3.43
610.421	3.04
610.87	3.35
611.319	3.34
611.768	3.45
612.218	3.38
612.667	3.95
613.116	3.72
613.565	3.19
614.014	3.16
614.463	3.91
614.912	3.53
615.361	4.12
615.81	3.85
616.258	3.51
616.707	3.76
617.156	3.76
617.605	3.19
618.054	3.54
618.502	3.87
618.951	3.38
619.4	3.59
619.848	3.48
620.297	4.02
620.745	3.2
621.194	3.88
621.642	3.18
622.091	3.55
622.539	3.25
622.988	3.42
623.436	3.9
623.885	3.31
624.333	3.48
624.781	3.84
625.23	3.71
625.678	3.52
626.126	3.55
626.574	3.55
627.022	3.8
627.471	3.2
627.919	2.89
628.367	3.98
628.815	3.5
629.263	3.57
629.711	4.25
630.159	3.58
630.607	3.76
631.055	3.64
631.503	3.76
631.95	3.69
632.398	3.67
632.846	3.38
633.294	3.75
633.742	3.38
634.189	3.87
634.637	3.73
635.085	3.64
635.532	3.57
635.98	3.6
636.427	3.67
636.875	4.41
637.323	3.23
637.77	3.72
638.217	3.45
638.665	3.44
639.112	3.64
639.56	3.54
640.007	3.53
640.454	3.13
640.902	3.74
641.349	4.37
641.796	3.5
642.243	3.44
642.69	3.44
643.138	3.71
643.585	3.62
644.032	3.28
644.479	3.37
644.926	3.81
645.373	3.73
645.82	3.55
646.267	3.58
646.714	3.92
647.161	3.75
647.607	4.03
648.054	3.56
648.501	3.51
648.948	3.65
649.395	3.33
649.841	3.59
650.288	3.44
650.735	3.9
651.181	3.88
651.628	3.64
652.075	3.58
652.521	3.67
652.968	3.81
653.414	3.89
653.861	3.42
654.307	3.81
654.753	3.79
655.2	4.05
655.646	3.76
656.092	3.8
656.539	3.82
656.985	3.67
657.431	3.48
657.877	3.8
658.324	3.58
658.77	3.88
659.216	3.75
659.662	3.73
660.108	3.8
660.554	4.41
661	3.91
661.446	3.88
661.892	3.57
662.338	3.83
662.784	4.48
663.23	4.18
663.675	3.6
664.121	3.82
664.567	4.04
665.013	3.77
665.458	4.01
665.904	3.99
666.35	3.49
666.795	3.74
667.241	4.01
667.687	3.99
668.132	4
668.578	3.65
669.023	3.65
669.469	3.63
669.914	3.63
670.359	4.02
670.805	3.62
671.25	3.76
671.695	4.02
672.141	3.89
672.586	4.07
673.031	4.01
673.476	3.95
673.922	4.18
674.367	3.49
674.812	3.83
675.257	3.58
675.702	3.84
676.147	3.82
676.592	3.65
677.037	4.03
677.482	3.96
677.927	3.99
678.372	4.16
678.817	4.12
679.261	3.9
679.706	4.01
680.151	3.92
680.596	4.05
681.04	3.95
681.485	4.18
681.93	4.14
682.374	3.77
682.819	4.13
683.264	3.99
683.708	4.04
684.153	4.14
684.597	4.27
685.042	3.86
685.486	3.7
685.93	3.85
686.375	4
686.819	4.26
687.263	3.98
687.708	3.6
688.152	3.88
688.596	4.14
689.04	3.74
689.485	4.32
689.929	4.4
690.373	3.98
690.817	4.13
691.261	3.8
691.705	4.31
692.149	3.7
692.593	3.78
693.037	4.25
693.481	3.96
693.925	4.12
694.369	4.22
694.812	3.8
695.256	3.77
695.7	4.37
696.144	3.93
696.587	3.82
697.031	4.28
697.475	4.24
697.918	4.07
698.362	3.87
698.806	4.34
699.249	3.86
699.693	4.08
700.136	3.67
700.58	4.18
701.023	4.27
701.466	4.39
701.91	4.14
702.353	4.19
702.796	3.97
703.24	4.17
703.683	4.22
704.126	4.21
704.569	4.17
705.013	4.32
705.456	3.99
705.899	4.01
706.342	4.35
706.785	4
707.228	4.06
707.671	4.2
708.114	4.17
708.557	3.89
709	4.46
709.443	3.83
709.886	4.16
710.328	4.41
710.771	4.25
711.214	4.32
711.657	4.26
712.099	4.36
712.542	4.22
712.985	4.33
713.427	4.33
713.87	4.36
714.313	4.17
714.755	4.06
715.198	4.29
715.64	4.54
716.083	4.09
716.525	4.44
716.967	4.47
717.41	4.42
717.852	4.27
718.295	4.23
718.737	3.81
719.179	3.98
719.621	4.52
720.063	4.48
720.506	4.37
720.948	4.28
721.39	4.15
721.832	4.38
722.274	4.62
722.716	4.22
723.158	4.26
723.6	4.09
724.042	4.19
724.484	4.47
724.926	4.7
725.368	4.25
725.81	4.43
726.251	4.72
726.693	4.29
727.135	4.38
727.577	4.44
728.018	4.21
728.46	4.03
728.902	4.35
729.343	4.27
729.785	4.56
730.226	4.69
730.668	4.36
731.109	4.51
731.551	4.3
731.992	4.52
732.434	4.43
732.875	4.4
733.316	4.42
733.758	4.42
734.199	4.18
734.64	4.37
735.081	4.37
735.523	4.3
735.964	4.35
736.405	4.68
736.846	4.41
737.287	4.44
737.728	4.64
738.169	4.69
738.61	4.39
739.051	4.58
739.492	4.53
739.933	4.44
740.374	4.44
740.815	4.51
741.256	4.35
741.696	4.48
742.137	4.4
742.578	4.52
743.019	4.18
743.459	4.42
743.9	4.56
744.341	4.54
744.781	4.37
745.222	4.22
745.662	4.36
746.103	4.51
746.543	3.91
746.984	4.85
747.424	4.5
747.865	4.81
748.305	4.29
748.745	4.62
749.186	4.53
749.626	4.82
750.066	4.23
750.506	4.39
750.947	4.17
751.387	4.71
751.827	4.66
752.267	4.76
752.707	4.8
753.147	4.69
753.587	4.69
754.027	4.42
754.467	4.65
754.907	4.95
755.347	4.51
755.787	4.74
756.227	4.97
756.667	4.76
757.107	4.65
757.546	4.75
757.986	4.68
758.426	4.35
758.865	4.49
759.305	4.58
759.745	4.92
760.184	4.98
760.624	4.82
761.063	4.69
761.503	4.33
761.943	5.07
762.382	4.71
762.821	4.79
763.261	4.79
763.7	4.67
764.14	4.66
764.579	5.23
765.018	4.61
765.457	4.63
765.897	4.96
766.336	4.78
766.775	4.91
767.214	5.19
767.653	5.07
768.092	4.47
768.531	5.21
768.97	5.01
769.409	4.68
769.848	4.84
770.287	4.98
770.726	5.02
771.165	5.01
771.604	4.73
772.043	4.83
772.482	4.64
772.92	4.84
773.359	4.79
773.798	4.9
774.237	4.73
774.675	4.91
775.114	4.82
775.553	5.06
775.991	4.96
776.43	4.89
776.868	5.05
777.307	5.06
777.745	4.83
778.184	5.07
778.622	4.86
779.06	4.94
779.499	5.02
779.937	5.03
780.375	4.73
780.814	4.78
781.252	5.2
781.69	5.08
782.128	4.86
782.566	5.05
783.004	5.15
783.443	5.02
783.881	5.01
784.319	5.14
784.757	5.26
785.195	4.92
785.633	5.12
786.071	5.38
786.508	4.96
786.946	4.99
787.384	5.19
787.822	5.12
788.26	4.83
788.697	5.14
789.135	5.31
789.573	5.32
790.011	5.33
790.448	5.31
790.886	5.01
791.323	5.27
791.761	5.31
792.198	5.11
792.636	5.14
793.073	5.28
793.511	5.08
793.948	5.4
794.386	5.43
794.823	4.98
795.26	5.16
795.698	5.06
796.135	5.23
796.572	5.7
797.009	5.46
797.446	5.23
797.884	5.28
798.321	5.26
798.758	5.32
799.195	5.21
799.632	5.45
800.069	5.38
800.506	5.61
800.943	5.11
801.38	5.35
801.817	5.26
802.254	5.55
802.69	5.56
803.127	5.34
803.564	5.57
804.001	5.51
804.438	5.65
804.874	5.42
805.311	5.35
805.748	5.22
806.184	5.5
806.621	5.37
807.057	5.4
807.494	5.48
807.93	5.26
808.367	5.5
808.803	5.49
809.24	5.51
809.676	5.4
810.112	5.49
810.549	5.56
810.985	5.38
811.421	5.73
811.857	5.74
812.294	5.64
812.73	5.57
813.166	5.46
813.602	5.65
814.038	5.4
814.474	5.55
814.91	5.68
815.346	5.61
815.782	5.49
816.218	5.89
816.654	5.59
817.09	5.84
817.526	5.36
817.962	5.94
818.398	5.47
818.833	5.66
819.269	5.6
819.705	5.57
820.141	5.76
820.576	5.61
821.012	5.8
821.447	5.69
821.883	5.83
822.319	5.78
822.754	5.81
823.19	5.91
823.625	5.66
824.061	5.69
824.496	6.14
824.931	5.97
825.367	5.97
825.802	5.75
826.237	5.85
826.673	5.84
827.108	5.85
827.543	5.95
827.978	5.82
828.413	5.93
828.849	5.65
829.284	5.97
829.719	6.1
830.154	5.94
830.589	6.09
831.024	5.9
831.459	5.76
831.894	5.96
832.329	5.84
832.763	5.95
833.198	5.7
833.633	5.98
834.068	6.03
834.503	5.9
834.937	5.88
835.372	5.98
835.807	6
836.241	6.11
836.676	5.86
837.111	6.02
837.545	6.23
837.98	6.2
838.414	6.14
838.849	5.94
839.283	6.19
839.717	6.08
840.152	6.43
840.586	6.29
841.021	6.19
841.455	6.16
841.889	6.18
842.323	6.26
842.758	6.27
843.192	5.97
843.626	6.3
844.06	6.22
844.494	6.14
844.928	6.04
845.362	6.29
845.796	6.24
