Data from JCR0023_White2_Reflection_00002.txt Node
Date: Fri Jul 31 11:44:18 ACST 2020
User: Stacey Dix
Spectrometer: MAYP113282
Scans to average: 1
Trigger mode: 0
Integration Time (sec): 1.000000E-1
Electric dark correction enabled: true
Boxcar width: 0
XAxis mode: Wavelengths
Number of Pixels in Spectrum: 2068
>>>>>Begin Spectral Data<<<<<
198.791	18.18
199.266	25
199.74	70
200.215	-50
200.69	22.34
201.164	58.2
201.639	19.83
202.114	28.33
202.588	37.01
203.063	31.87
203.537	14.64
204.012	35.41
204.486	32.68
204.961	31.13
205.435	21.96
205.909	31.15
206.384	9.7
206.858	9.56
207.332	22.86
207.807	35.36
208.281	25
208.755	19.1
209.229	25.94
209.703	26.33
210.177	43.91
210.651	11.82
211.126	20.77
211.6	-19.29
212.074	21.05
212.548	26.63
213.021	26.98
213.495	32.11
213.969	21.27
214.443	39.17
214.917	25.51
215.391	17.97
215.864	17.44
216.338	16.92
216.812	22.87
217.286	8.93
217.759	18.92
218.233	23.83
218.706	17.07
219.18	16.79
219.654	18.61
220.127	18.66
220.6	11.79
221.074	22.94
221.547	15.06
222.021	19.81
222.494	14.01
222.967	19.55
223.441	17.21
223.914	21.11
224.387	11.12
224.86	20.4
225.334	24.49
225.807	12.9
226.28	12.79
226.753	13.19
227.226	11.34
227.699	11.87
228.172	14.56
228.645	10.83
229.118	10.17
229.591	13.12
230.064	12.12
230.537	14.41
231.01	11.7
231.482	11.57
231.955	11.91
232.428	8.65
232.901	13.1
233.373	10.04
233.846	10.24
234.319	9.64
234.791	12.16
235.264	10.23
235.736	10.54
236.209	10.22
236.681	9.66
237.154	11.55
237.626	12.22
238.099	11.31
238.571	10.17
239.044	12.44
239.516	10.88
239.988	10.89
240.46	11.04
240.933	9.58
241.405	10.17
241.877	9.83
242.349	10.5
242.821	9.63
243.293	9.92
243.765	9.94
244.237	9.6
244.71	11.11
245.181	9.16
245.653	11.07
246.125	11.38
246.597	11.75
247.069	9.1
247.541	10.31
248.013	10.46
248.485	10.63
248.956	10.08
249.428	9.46
249.9	10.14
250.371	9.94
250.843	10.4
251.315	9.7
251.786	9.06
252.258	9.75
252.729	10.05
253.201	9.89
253.672	8.56
254.144	9.75
254.615	9.47
255.086	9.21
255.558	9.07
256.029	8.25
256.5	9.38
256.972	8.53
257.443	8.83
257.914	9
258.385	8.52
258.856	8.75
259.327	9
259.799	9.75
260.27	9.22
260.741	8.3
261.212	8.49
261.683	8.41
262.154	9.21
262.624	8.32
263.095	8.82
263.566	8.72
264.037	8.58
264.508	8.39
264.979	8.38
265.449	8.64
265.92	8.39
266.391	8.18
266.861	8.98
267.332	8.11
267.803	7.82
268.273	8.88
268.744	8.29
269.214	9.1
269.685	8.61
270.155	8.58
270.626	8.31
271.096	8.91
271.566	9.06
272.037	8.96
272.507	9.09
272.977	9.02
273.448	8.21
273.918	7.85
274.388	8.39
274.858	7.67
275.328	8.05
275.798	7.69
276.268	8.17
276.738	7.95
277.208	8.32
277.678	8.15
278.148	8.62
278.618	8.45
279.088	9.23
279.558	8.06
280.028	7.93
280.498	8.24
280.968	8.29
281.437	7.44
281.907	8.32
282.377	8.63
282.847	8.23
283.316	7.82
283.786	8.77
284.255	8.31
284.725	8.73
285.194	8.21
285.664	7.33
286.133	7.39
286.603	6.97
287.072	7.63
287.542	7.62
288.011	7.69
288.48	7.17
288.95	7.6
289.419	8.15
289.888	6.97
290.357	8.74
290.827	7.43
291.296	7.71
291.765	6.76
292.234	7.92
292.703	7.04
293.172	8.69
293.641	6.83
294.11	8.32
294.579	7.53
295.048	8.37
295.517	7.4
295.986	8.52
296.455	8.31
296.923	8.82
297.392	7.38
297.861	8.07
298.33	7.55
298.798	7.85
299.267	9.17
299.736	8.42
300.204	7.61
300.673	8.54
301.141	7.68
301.61	8.02
302.079	7.89
302.547	7.57
303.015	7.46
303.484	7.34
303.952	8.52
304.421	7.53
304.889	7.6
305.357	7.83
305.825	7.64
306.294	9.11
306.762	8.08
307.23	8.49
307.698	9.03
308.166	8.54
308.634	8.44
309.103	7.84
309.571	8.56
310.039	8.43
310.507	8.43
310.975	8.45
311.442	7.84
311.91	8.36
312.378	9
312.846	8.42
313.314	9.22
313.782	7.75
314.249	8.66
314.717	9.06
315.185	8.28
315.652	8.64
316.12	8.03
316.588	7.85
317.055	9.2
317.523	8.14
317.99	8.52
318.458	8.56
318.925	8.58
319.393	8.31
319.86	8.98
320.328	8.56
320.795	8.35
321.262	8.86
321.73	8.37
322.197	9.62
322.664	8.73
323.131	9.57
323.598	9.65
324.066	9.79
324.533	10.02
325	11.37
325.467	10.8
325.934	9.52
326.401	10.22
326.868	10.75
327.335	11.16
327.802	10.29
328.269	11.38
328.735	11.89
329.202	12.43
329.669	11.75
330.136	11.74
330.603	12.9
331.069	12.75
331.536	12.81
332.003	13.06
332.469	13.59
332.936	13.17
333.402	15.22
333.869	13.87
334.336	13.97
334.802	13.02
335.268	12.95
335.735	14.31
336.201	14.03
336.668	13.94
337.134	13.89
337.6	13.04
338.067	13.73
338.533	13.63
338.999	13.95
339.465	13.8
339.931	13.79
340.398	14.19
340.864	13.74
341.33	13.72
341.796	14.01
342.262	14.01
342.728	12.23
343.194	14.12
343.66	12.46
344.126	13.42
344.592	13.26
345.057	14.48
345.523	13.72
345.989	12.69
346.455	14.31
346.921	13.29
347.386	15.38
347.852	13.91
348.318	12.85
348.783	13.38
349.249	12.99
349.714	12.73
350.18	13.81
350.645	12.73
351.111	12.7
351.576	12.71
352.042	13.38
352.507	13.07
352.973	13.81
353.438	12.87
353.903	13.9
354.369	12.33
354.834	13.74
355.299	13.91
355.764	12.89
356.229	11.96
356.695	13.99
357.16	14
357.625	13.29
358.09	12.5
358.555	14.24
359.02	12.38
359.485	13.4
359.95	11.73
360.415	14.21
360.879	14.64
361.344	13.09
361.809	14.4
362.274	12.31
362.739	13.53
363.203	13.48
363.668	13.95
364.133	13.06
364.597	13.91
365.062	13.63
365.527	12.7
365.991	13.57
366.456	13.05
366.92	13.11
367.385	13.32
367.849	13.38
368.314	12.97
368.778	13.32
369.242	14.89
369.707	13.81
370.171	13.82
370.635	13.51
371.1	12.58
371.564	12.75
372.028	14.29
372.492	14.26
372.956	12.56
373.42	13.61
373.884	12.81
374.348	14.16
374.812	14.1
375.276	13.47
375.74	12.22
376.204	13.8
376.668	13.75
377.132	14.14
377.596	12.46
378.06	13.07
378.524	13.09
378.987	13.43
379.451	13.9
379.915	13.8
380.378	13.5
380.842	13.36
381.306	13.59
381.769	13.52
382.233	14.14
382.696	13.42
383.16	14.43
383.623	13.89
384.087	14.02
384.55	13.28
385.014	14.2
385.477	13.63
385.94	13.52
386.404	12.83
386.867	13.95
387.33	13.44
387.793	13.01
388.256	13.73
388.72	13.43
389.183	12.99
389.646	12.24
390.109	14.38
390.572	13.73
391.035	12.48
391.498	13.46
391.961	14.13
392.424	12.22
392.887	12.68
393.35	13.34
393.812	13.03
394.275	12.38
394.738	12.56
395.201	13.33
395.664	12.18
396.126	13.5
396.589	12.77
397.052	12.77
397.514	13.63
397.977	13.39
398.439	12.82
398.902	13.26
399.364	13.59
399.827	13.62
400.289	12.34
400.752	12.62
401.214	12.5
401.676	12.61
402.139	13.18
402.601	13.1
403.063	12.76
403.525	13.44
403.988	13.6
404.45	12.11
404.912	13.08
405.374	12
405.836	12.72
406.298	13.41
406.76	11.66
407.222	13.02
407.684	11.86
408.146	12.8
408.608	12.98
409.07	13.24
409.532	13.29
409.994	12.11
410.456	13.05
410.917	12.92
411.379	12.61
411.841	13.95
412.303	12.7
412.764	12.15
413.226	12.38
413.687	12.44
414.149	13.81
414.611	13.06
415.072	12.63
415.534	13.37
415.995	13.27
416.457	11.82
416.918	13.01
417.379	13.02
417.841	12.31
418.302	13.17
418.763	11.82
419.225	13.15
419.686	13.98
420.147	13.58
420.608	14.08
421.069	13.4
421.53	13.01
421.991	13.23
422.453	13.7
422.914	14.73
423.375	13.07
423.836	13.88
424.297	13.85
424.757	14.6
425.218	12.65
425.679	14.73
426.14	13.89
426.601	13.03
427.062	13
427.522	14.57
427.983	14.34
428.444	13.66
428.904	13.48
429.365	13.99
429.826	15.05
430.286	12.5
430.747	15.37
431.207	14.98
431.668	16.46
432.128	14.76
432.589	16.39
433.049	13.18
433.509	15.35
433.97	13.61
434.43	13.13
434.89	13.45
435.351	12.47
435.811	13.66
436.271	15.79
436.731	15.6
437.191	15.69
437.651	14.9
438.112	15.98
438.572	14.99
439.032	14.78
439.492	14.66
439.952	13.02
440.412	15.8
440.871	14.48
441.331	15.92
441.791	16.59
442.251	15.62
442.711	13.92
443.171	14.71
443.63	15.04
444.09	14.04
444.55	15.09
445.009	16.28
445.469	14.71
445.929	15.26
446.388	14.23
446.848	16.82
447.307	16.65
447.767	15.89
448.226	14.76
448.686	15.14
449.145	14.37
449.604	14.6
450.064	15.12
450.523	17.16
450.982	14.83
451.442	15.52
451.901	16.92
452.36	14.5
452.819	15.2
453.278	16.83
453.737	16.4
454.197	14.63
454.656	16.27
455.115	15.67
455.574	16.09
456.033	15.83
456.492	14.85
456.95	14.82
457.409	16.19
457.868	16.09
458.327	15.85
458.786	14.66
459.245	17.84
459.703	15.3
460.162	16.26
460.621	14.67
461.079	16.33
461.538	15.79
461.997	15.76
462.455	15.7
462.914	16.24
463.372	15.05
463.831	14.99
464.289	17.04
464.748	16.79
465.206	15.55
465.664	15.96
466.123	15.95
466.581	15.68
467.039	18.22
467.497	15.59
467.956	16.35
468.414	16.22
468.872	17.74
469.33	14.92
469.788	17.01
470.246	17.78
470.704	14.68
471.162	15.67
471.62	16.29
472.078	15.93
472.536	15.49
472.994	16.4
473.452	15.21
473.91	17.85
474.368	16.07
474.826	16.91
475.283	18.8
475.741	16.1
476.199	15.24
476.656	16.07
477.114	17.83
477.572	15.9
478.029	16.25
478.487	17.5
478.944	15.38
479.402	17.41
479.859	15.86
480.317	17.79
480.774	16.53
481.232	16.69
481.689	17
482.146	15.64
482.604	17.6
483.061	17.64
483.518	15.26
483.975	15.55
484.433	18.14
484.89	17.08
485.347	15.76
485.804	20.04
486.261	17.17
486.718	16.68
487.175	16.78
487.632	17.88
488.089	15.42
488.546	18.66
489.003	17.48
489.46	17.64
489.917	18.58
490.373	19.08
490.83	16.87
491.287	17.67
491.744	16.97
492.2	15.36
492.657	15.63
493.114	16.94
493.57	15.49
494.027	19.84
494.484	16.28
494.94	14.59
495.397	17.76
495.853	18.93
496.31	17.28
496.766	16.27
497.222	17.87
497.679	15.58
498.135	15.79
498.591	16.16
499.048	16.74
499.504	19.02
499.96	13.7
500.416	18.72
500.872	15.46
501.329	16.99
501.785	17.88
502.241	17.1
502.697	17.36
503.153	18.16
503.609	16.33
504.065	15.73
504.521	16.4
504.977	17.65
505.432	14.66
505.888	17.79
506.344	16.85
506.8	15.45
507.256	18.04
507.711	18.37
508.167	17.32
508.623	17.56
509.078	18.26
509.534	18.55
509.99	16.97
510.445	17.5
510.901	17.12
511.356	18.57
511.812	15.28
512.267	17.82
512.722	16.65
513.178	16.86
513.633	17.59
514.089	17.66
514.544	17.71
514.999	18.24
515.454	18.44
515.91	17.33
516.365	16.3
516.82	16.46
517.275	18.45
517.73	16.45
518.185	18.32
518.64	17.28
519.095	18.26
519.55	17.08
520.005	16.92
520.46	16.3
520.915	17.13
521.37	17.15
521.825	17.73
522.28	16.64
522.734	17.04
523.189	17.02
523.644	17.56
524.099	16.6
524.553	17.35
525.008	17.67
525.462	18.34
525.917	17.85
526.372	17.64
526.826	18.45
527.281	16.68
527.735	16.58
528.19	16.5
528.644	18.71
529.098	18.26
529.553	17.91
530.007	16.5
530.461	16.8
530.916	16.06
531.37	17.48
531.824	18.49
532.278	17.77
532.732	18.05
533.186	17.18
533.641	17.09
534.095	18.63
534.549	16.2
535.003	18.47
535.457	17.67
535.911	20.64
536.365	18.95
536.818	15.86
537.272	18.2
537.726	19.07
538.18	18.38
538.634	17.74
539.087	18.71
539.541	17.13
539.995	16.81
540.449	19.67
540.902	16.82
541.356	18.9
541.809	16.25
542.263	17.57
542.716	18.75
543.17	16.77
543.623	16.5
544.077	17.5
544.53	18.3
544.984	17.61
545.437	16.75
545.89	18.51
546.344	16.91
546.797	20.35
547.25	18.24
547.703	18.58
548.157	17.23
548.61	18.36
549.063	18.31
549.516	18.02
549.969	18.19
550.422	18.21
550.875	19.91
551.328	17.28
551.781	18.77
552.234	18.06
552.687	19.02
553.14	18.01
553.592	16.99
554.045	18.82
554.498	17.92
554.951	17.71
555.404	17.49
555.856	19.16
556.309	19.99
556.762	17.52
557.214	17.94
557.667	17.78
558.119	19.06
558.572	17.82
559.024	18.51
559.477	18.23
559.929	17.97
560.382	18.94
560.834	18.12
561.286	18.81
561.739	18.69
562.191	17.52
562.643	18.12
563.095	19.51
563.548	17.06
564	19.07
564.452	17.02
564.904	17.94
565.356	18.42
565.808	18.01
566.26	19.43
566.712	18.39
567.164	18.2
567.616	18.61
568.068	18.79
568.52	19.23
568.972	18.25
569.424	17.67
569.876	19.64
570.327	19.2
570.779	17.99
571.231	18.37
571.682	17.49
572.134	18.99
572.586	19.91
573.037	18.51
573.489	19.33
573.941	18
574.392	16.84
574.844	17.69
575.295	19.75
575.746	19.3
576.198	18.61
576.649	18.4
577.101	18.43
577.552	18.86
578.003	19.17
578.454	18.36
578.906	17.61
579.357	18.08
579.808	18.73
580.259	19.14
580.71	19.24
581.161	19.62
581.612	18.76
582.064	19.03
582.515	20.6
582.965	19.27
583.416	18.9
583.867	17.77
584.318	19.04
584.769	19.19
585.22	18.98
585.671	19.73
586.122	19.48
586.572	19.55
587.023	19
587.474	18.75
587.924	19.32
588.375	18.72
588.826	19.81
589.276	19.95
589.727	19
590.177	19.09
590.628	18.9
591.078	18.44
591.529	20.26
591.979	18.77
592.429	20.16
592.88	20.58
593.33	19.15
593.78	18.95
594.231	19.03
594.681	19.21
595.131	18.87
595.581	19.64
596.031	19.77
596.481	18.89
596.932	19.35
597.382	21.09
597.832	19.65
598.282	19.51
598.732	19.46
599.182	18.16
599.632	19.59
600.081	20.01
600.531	19.9
600.981	20.44
601.431	18.2
601.881	20.11
602.33	19.02
602.78	19.07
603.23	19.55
603.679	19.61
604.129	20.22
604.579	19.42
605.028	18.8
605.478	19.68
605.927	20
606.377	19.91
606.826	18.73
607.276	19.24
607.725	20.18
608.175	18.49
608.624	20.1
609.073	19.58
609.522	20.7
609.972	19.34
610.421	20.71
610.87	19.38
611.319	21.04
611.768	21.24
612.218	18.99
612.667	20.45
613.116	20.1
613.565	21.19
614.014	19.34
614.463	19.94
614.912	20.56
615.361	19.97
615.81	20.52
616.258	20.12
616.707	20.21
617.156	21.01
617.605	19.81
618.054	20.67
618.502	19.62
618.951	20.34
619.4	19.88
619.848	21.27
620.297	20.69
620.745	20.26
621.194	20.13
621.642	19.13
622.091	20.94
622.539	20.27
622.988	19.86
623.436	20.42
623.885	19.5
624.333	19.53
624.781	20.75
625.23	20
625.678	21.09
626.126	19.91
626.574	19.9
627.022	19.88
627.471	21.53
627.919	19.35
628.367	19.73
628.815	21.11
629.263	19.84
629.711	19.98
630.159	20.39
630.607	20.44
631.055	20.61
631.503	20.07
631.95	20.52
632.398	20.1
632.846	20.22
633.294	20.25
633.742	20.89
634.189	21.5
634.637	21.24
635.085	20.6
635.532	20.07
635.98	20.7
636.427	19.78
636.875	20.66
637.323	19.95
637.77	21.05
638.217	21.34
638.665	20.67
639.112	21.36
639.56	20.03
640.007	20.86
640.454	20.55
640.902	20.52
641.349	19.17
641.796	20.84
642.243	20.54
642.69	20.82
643.138	20.95
643.585	20.68
644.032	20.7
644.479	21.42
644.926	21.23
645.373	20.61
645.82	20.37
646.267	21.4
646.714	20.57
647.161	21.25
647.607	20.3
648.054	20.51
648.501	21.08
648.948	20.19
649.395	21.82
649.841	20.35
650.288	20.92
650.735	21.01
651.181	20.45
651.628	20.53
652.075	20.65
652.521	20.54
652.968	21.12
653.414	21.14
653.861	21.11
654.307	21.72
654.753	20.91
655.2	21.49
655.646	20.78
656.092	21.55
656.539	20.95
656.985	21.25
657.431	21.93
657.877	20.77
658.324	21.97
658.77	22.65
659.216	20.77
659.662	21.29
660.108	21.53
660.554	21.92
661	20.78
661.446	22.27
661.892	22.57
662.338	21.23
662.784	22.09
663.23	21.85
663.675	21.4
664.121	21.74
664.567	22.47
665.013	21.13
665.458	22.34
665.904	21.71
666.35	21.78
666.795	22.21
667.241	22.33
667.687	22.08
668.132	21.65
668.578	21.88
669.023	22.74
669.469	22.18
669.914	22.74
670.359	23.18
670.805	22.38
671.25	22.74
671.695	21.68
672.141	22.71
672.586	22.84
673.031	22.57
673.476	23.15
673.922	23.34
674.367	22.8
674.812	22.61
675.257	22.82
675.702	22.69
676.147	22.44
676.592	22.08
677.037	22.47
677.482	23.26
677.927	22.16
678.372	22.5
678.817	22.24
679.261	22.82
679.706	23.02
680.151	22.92
680.596	22.94
681.04	23.05
681.485	22.7
681.93	23.25
682.374	22.92
682.819	23.61
683.264	23.26
683.708	23.1
684.153	23.3
684.597	23.44
685.042	23.04
685.486	23.47
685.93	23.08
686.375	23.78
686.819	22.8
687.263	23.52
687.708	23.32
688.152	23.53
688.596	23.28
689.04	23.46
689.485	24.18
689.929	23.65
690.373	23.76
690.817	23.69
691.261	23.47
691.705	23.32
692.149	23.21
692.593	22.84
693.037	23.87
693.481	23.08
693.925	23.63
694.369	23.33
694.812	23.59
695.256	23.61
695.7	23.57
696.144	23.06
696.587	23.93
697.031	24.54
697.475	23.39
697.918	24.16
698.362	23.64
698.806	24.17
699.249	23.29
699.693	23.6
700.136	24.04
700.58	23.34
701.023	23.44
701.466	23.44
701.91	24.7
702.353	24.26
702.796	24.05
703.24	23.72
703.683	23.85
704.126	24.18
704.569	24.38
705.013	23.77
705.456	24.35
705.899	24.05
706.342	23.6
706.785	23.33
707.228	23.83
707.671	24.2
708.114	23.9
708.557	23.5
709	24.44
709.443	24.4
709.886	24
710.328	24.33
710.771	23.89
711.214	24.4
711.657	24.25
712.099	24.23
712.542	23.96
712.985	23.67
713.427	24.11
713.87	24.26
714.313	24.25
714.755	23.83
715.198	24.02
715.64	24.09
716.083	24.58
716.525	24.45
716.967	23.73
717.41	23.76
717.852	23.96
718.295	24.2
718.737	24.81
719.179	24.39
719.621	24.95
720.063	24.08
720.506	24.59
720.948	24.58
721.39	24.24
721.832	23.75
722.274	24.37
722.716	24.3
723.158	24.72
723.6	24.47
724.042	24.44
724.484	23.77
724.926	24.12
725.368	24.07
725.81	24.77
726.251	24.17
726.693	25.34
727.135	24.87
727.577	24.88
728.018	24.23
728.46	24.21
728.902	24.86
729.343	24.84
729.785	24.78
730.226	24.32
730.668	24.69
731.109	24.57
731.551	24.45
731.992	24.68
732.434	24.82
732.875	25.07
733.316	24.59
733.758	24.91
734.199	25.39
734.64	25.06
735.081	24.83
735.523	24.88
735.964	25.16
736.405	25.02
736.846	24.37
737.287	24.7
737.728	24.96
738.169	25.3
738.61	25.06
739.051	25.56
739.492	25.8
739.933	24.93
740.374	25.16
740.815	24.98
741.256	24.91
741.696	25.28
742.137	24.79
742.578	25.41
743.019	24.83
743.459	25.44
743.9	24.97
744.341	24.64
744.781	25.3
745.222	25
745.662	24.94
746.103	24.63
746.543	24.61
746.984	25.08
747.424	24.65
747.865	25.5
748.305	26.11
748.745	25.32
749.186	25.2
749.626	25.69
750.066	25.34
750.506	25.83
750.947	24.79
751.387	25.91
751.827	24.65
752.267	25.34
752.707	26.08
753.147	25.43
753.587	25.16
754.027	26.01
754.467	25.12
754.907	25.77
755.347	26.02
755.787	25.37
756.227	26.19
756.667	25.53
757.107	25.35
757.546	25.41
757.986	25.51
758.426	25.64
758.865	25.57
759.305	25.68
759.745	25.68
760.184	25.86
760.624	25.69
761.063	25.7
761.503	25.39
761.943	25.61
762.382	25.87
762.821	26.07
763.261	25.09
763.7	25.15
764.14	25.5
764.579	25.4
765.018	25.96
765.457	25.54
765.897	26.01
766.336	25.84
766.775	25.74
767.214	26.4
767.653	25.82
768.092	25.95
768.531	25.96
768.97	25.98
769.409	25.35
769.848	25.94
770.287	26.25
770.726	25.92
771.165	25.96
771.604	26.48
772.043	25.67
772.482	25.56
772.92	27.05
773.359	25.69
773.798	26.79
774.237	26.04
774.675	26.02
775.114	25.97
775.553	26.55
775.991	25.55
776.43	25.85
776.868	25.7
777.307	25.76
777.745	26.36
778.184	25.95
778.622	26.32
779.06	26.24
779.499	26.7
779.937	26.23
780.375	26.02
780.814	26.41
781.252	25.78
781.69	25.82
782.128	26.38
782.566	26.19
783.004	26.05
783.443	26.86
783.881	27.24
784.319	25.87
784.757	26.27
785.195	26.08
785.633	26.97
786.071	26.45
786.508	26.69
786.946	26.34
787.384	26.46
787.822	26.33
788.26	25.92
788.697	26.82
789.135	26.5
789.573	26.73
790.011	26.61
790.448	26.2
790.886	26.95
791.323	26.6
791.761	27.15
792.198	27.06
792.636	25.8
793.073	26.08
793.511	27.38
793.948	26.94
794.386	26.8
794.823	26.74
795.26	26.78
795.698	26.61
796.135	26.35
796.572	27.38
797.009	26.07
797.446	27.52
797.884	26.83
798.321	26.62
798.758	27.25
799.195	26.86
799.632	26.98
800.069	26.92
800.506	27.18
800.943	26.32
801.38	27.2
801.817	26.18
802.254	26.3
802.69	26.68
803.127	26.25
803.564	27.02
804.001	26.79
804.438	26.78
804.874	27.08
805.311	26.48
805.748	26.88
806.184	27.22
806.621	27.3
807.057	26.81
807.494	26.99
807.93	27.36
808.367	27.29
808.803	27.24
809.24	26.85
809.676	27.51
810.112	27.54
810.549	27.59
810.985	27.47
