Data from JCR0018_BlackVentral_Reflection_00003.txt Node
Date: Thu Jul 23 16:29:30 ACST 2020
User: Stacey Dix
Spectrometer: MAYP113282
Scans to average: 1
Trigger mode: 0
Integration Time (sec): 1.000000E-1
Electric dark correction enabled: true
Boxcar width: 0
XAxis mode: Wavelengths
Number of Pixels in Spectrum: 2068
>>>>>Begin Spectral Data<<<<<
198.791	-425
199.266	50
199.74	225
200.215	0
200.69	-13.01
201.164	-9.15
201.639	-4.95
202.114	4.91
202.588	-2.69
203.063	1.74
203.537	-0.45
204.012	14.1
204.486	-3.54
204.961	-2.1
205.435	1.44
205.909	-4.44
206.384	-2.63
206.858	8.88
207.332	-3.54
207.807	-3.78
208.281	22.01
208.755	1.11
209.229	-24.12
209.703	3.59
210.177	-12.96
210.651	0.35
211.126	10
211.6	-1.64
212.074	7.09
212.548	7.58
213.021	2.29
213.495	7.45
213.969	12.75
214.443	-4.21
214.917	13.58
215.391	11.2
215.864	-8.43
216.338	8.56
216.812	7.71
217.286	-7.29
217.759	9
218.233	-1.44
218.706	4.69
219.18	1.83
219.654	3.62
220.127	5.66
220.6	5.53
221.074	4.31
221.547	8.04
222.021	-2.04
222.494	0.81
222.967	9.03
223.441	1.82
223.914	7.45
224.387	5.1
224.86	8.58
225.334	5.59
225.807	9.2
226.28	5.52
226.753	6.4
227.226	4.6
227.699	4.77
228.172	3.17
228.645	6.18
229.118	7.2
229.591	3.16
230.064	4.97
230.537	4.2
231.01	7.41
231.482	5.84
231.955	9.62
232.428	5.43
232.901	5.18
233.373	7.66
233.846	5.39
234.319	6.3
234.791	4.55
235.264	5.4
235.736	5.02
236.209	4.19
236.681	5.4
237.154	4.78
237.626	5.63
238.099	4.21
238.571	6.6
239.044	5.64
239.516	5.59
239.988	5.11
240.46	7.25
240.933	5.48
241.405	5.3
241.877	4.34
242.349	5.12
242.821	5.45
243.293	4.44
243.765	5.09
244.237	6.1
244.71	4.84
245.181	4.23
245.653	4.12
246.125	5.57
246.597	4.91
247.069	4.6
247.541	6.2
248.013	4.66
248.485	5.16
248.956	4.99
249.428	5.02
249.9	4.67
250.371	5.59
250.843	4.49
251.315	4.54
251.786	5.38
252.258	4.64
252.729	4.67
253.201	4.87
253.672	4.75
254.144	4.31
254.615	3.83
255.086	4.61
255.558	4.84
256.029	4.09
256.5	4.34
256.972	4.84
257.443	4.13
257.914	4.03
258.385	4.66
258.856	4.4
259.327	4.1
259.799	4.22
260.27	4.13
260.741	4.01
261.212	4.3
261.683	4.34
262.154	4.85
262.624	4.45
263.095	4.04
263.566	4.87
264.037	4.2
264.508	4.38
264.979	4.24
265.449	4.39
265.92	4.36
266.391	3.6
266.861	4.37
267.332	4.34
267.803	4.03
268.273	4.64
268.744	3.58
269.214	4.24
269.685	4.01
270.155	3.78
270.626	4.52
271.096	4.13
271.566	4.15
272.037	4.43
272.507	4.5
272.977	2.79
273.448	2.55
273.918	4.12
274.388	4.34
274.858	3.17
275.328	4.06
275.798	4.18
276.268	4.15
276.738	3.54
277.208	4.01
277.678	4.72
278.148	4.12
278.618	3.52
279.088	3.7
279.558	3.58
280.028	3.5
280.498	3.62
280.968	4.25
281.437	4.2
281.907	3.29
282.377	3.78
282.847	4.3
283.316	3.98
283.786	3.8
284.255	3.49
284.725	3.47
285.194	4.37
285.664	3.96
286.133	3.91
286.603	3.8
287.072	3.82
287.542	3.88
288.011	3.98
288.48	2.92
288.95	4.74
289.419	3.8
289.888	4.52
290.357	3.96
290.827	4.16
291.296	4.35
291.765	4.26
292.234	3.68
292.703	3.89
293.172	3.08
293.641	3.39
294.11	4.11
294.579	3.84
295.048	3.89
295.517	3.34
295.986	3.31
296.455	3.79
296.923	3.14
297.392	3.69
297.861	2.89
298.33	3.29
298.798	3.12
299.267	3.87
299.736	3.71
300.204	3.44
300.673	3.13
301.141	2.49
301.61	3.28
302.079	3
302.547	3.75
303.015	3.29
303.484	3.45
303.952	3.56
304.421	3.61
304.889	3.76
305.357	3.42
305.825	3.03
306.294	3.36
306.762	3.72
307.23	2.96
307.698	4.08
308.166	3.03
308.634	3.67
309.103	3.14
309.571	3.04
310.039	3.63
310.507	2.88
310.975	2.68
311.442	3.42
311.91	3
312.378	3.07
312.846	3.12
313.314	3.09
313.782	3.17
314.249	2.98
314.717	3.57
315.185	2.36
315.652	2.82
316.12	3.15
316.588	3.24
317.055	3.48
317.523	3.58
317.99	2.79
318.458	3.43
318.925	2.37
319.393	3.35
319.86	3
320.328	3.76
320.795	2.9
321.262	3.54
321.73	3.22
322.197	2.65
322.664	2.64
323.131	2.3
323.598	3.25
324.066	3.15
324.533	2.81
325	2.78
325.467	3.48
325.934	2.84
326.401	2.38
326.868	2.46
327.335	3.15
327.802	2.81
328.269	2.54
328.735	2.84
329.202	2.75
329.669	2.92
330.136	2.3
330.603	3.2
331.069	2.14
331.536	3.44
332.003	2.06
332.469	2.73
332.936	2.88
333.402	2.71
333.869	2.53
334.336	2.38
334.802	3.2
335.268	2.49
335.735	2.63
336.201	2.63
336.668	2.53
337.134	1.78
337.6	2.05
338.067	2.44
338.533	2.86
338.999	2.75
339.465	2.24
339.931	2.76
340.398	2.7
340.864	2.55
341.33	2.45
341.796	2.35
342.262	2.11
342.728	2.17
343.194	2.31
343.66	2.41
344.126	2.71
344.592	2.21
345.057	2.4
345.523	2.03
345.989	2.13
346.455	2.24
346.921	2.84
347.386	2.92
347.852	1.78
348.318	2.42
348.783	2.17
349.249	1.94
349.714	1.95
350.18	3.17
350.645	2.07
351.111	2.39
351.576	3.12
352.042	2.08
352.507	2.91
352.973	1.93
353.438	2.78
353.903	2.46
354.369	2.34
354.834	2.21
355.299	2.31
355.764	1.09
356.229	2.84
356.695	2.22
357.16	2.11
357.625	2.31
358.09	2.47
358.555	2.85
359.02	2.25
359.485	2.78
359.95	2.78
360.415	2.56
360.879	2.37
361.344	1.81
361.809	2.78
362.274	1.94
362.739	1.79
363.203	2.42
363.668	3.08
364.133	1.74
364.597	2.6
365.062	2.15
365.527	1.89
365.991	2.68
366.456	1.95
366.92	2.24
367.385	2.55
367.849	2.12
368.314	1.68
368.778	2.11
369.242	2.09
369.707	2.15
370.171	2.89
370.635	1.96
371.1	2.76
371.564	2.23
372.028	2.87
372.492	2.77
372.956	2.46
373.42	2.2
373.884	2.6
374.348	2.4
374.812	2.45
375.276	2.58
375.74	2.78
376.204	2.87
376.668	2.95
377.132	1.74
377.596	2.65
378.06	2
378.524	1.99
378.987	2.93
379.451	2.47
379.915	1.78
380.378	2.59
380.842	2.03
381.306	2.69
381.769	2.16
382.233	3.23
382.696	1.91
383.16	2.66
383.623	2.44
384.087	1.7
384.55	2.76
385.014	2.57
385.477	2.68
385.94	2.72
386.404	2.58
386.867	2.09
387.33	2.64
387.793	2.89
388.256	2.14
388.72	3.05
389.183	2.49
389.646	2.48
390.109	2.41
390.572	2.31
391.035	2.57
391.498	2.66
391.961	2.29
392.424	2.61
392.887	2.76
393.35	2.15
393.812	2.61
394.275	2.25
394.738	2.36
395.201	1.8
395.664	2.19
396.126	1.76
396.589	2.94
397.052	2.12
397.514	1.65
397.977	2.4
398.439	2.61
398.902	2.33
399.364	2.13
399.827	2.28
400.289	2.78
400.752	2.38
401.214	2.58
401.676	2.25
402.139	2.48
402.601	2.01
403.063	3.2
403.525	2.57
403.988	2.5
404.45	2.02
404.912	2.96
405.374	1.91
405.836	2.9
406.298	2.25
406.76	2.8
407.222	3.13
407.684	2.03
408.146	2.45
408.608	2.51
409.07	2.95
409.532	1.79
409.994	2.66
410.456	1.63
410.917	3.33
411.379	2.84
411.841	2.32
412.303	2.04
412.764	2.39
413.226	2.43
413.687	2.81
414.149	2.09
414.611	2.41
415.072	2.63
415.534	2.68
415.995	2.08
416.457	2.11
416.918	3.04
417.379	2.62
417.841	2.48
418.302	3.08
418.763	3.02
419.225	2.71
419.686	2.38
420.147	2.4
420.608	2.05
421.069	2.32
421.53	2.78
421.991	2.97
422.453	2.22
422.914	2.95
423.375	2.07
423.836	2.52
424.297	2.55
424.757	2.52
425.218	2.9
425.679	1.51
426.14	2.5
426.601	2.29
427.062	2.38
427.522	1.74
427.983	1.64
428.444	3.16
428.904	1.74
429.365	2.29
429.826	1.7
430.286	2.74
430.747	2.43
431.207	2.89
431.668	3.17
432.128	2.64
432.589	2.25
433.049	1.96
433.509	3.03
433.97	1.98
434.43	2.06
434.89	2.11
435.351	3.18
435.811	2.62
436.271	2.81
436.731	2.74
437.191	2.38
437.651	2.22
438.112	2.22
438.572	1.67
439.032	1.7
439.492	3.45
439.952	3.19
440.412	2.83
440.871	3.67
441.331	3.19
441.791	2.94
442.251	3.75
442.711	3.44
443.171	3.87
443.63	2.81
444.09	1.58
444.55	2.8
445.009	3.32
445.469	2.56
445.929	2.64
446.388	3.59
446.848	3.31
447.307	3.23
447.767	2.73
448.226	2.48
448.686	3.29
449.145	2.51
449.604	2.85
450.064	2.86
450.523	2.97
450.982	3.26
451.442	2.88
451.901	3.41
452.36	2.79
452.819	2.89
453.278	2.8
453.737	3.52
454.197	3.04
454.656	2.85
455.115	2.03
455.574	3.05
456.033	3.46
456.492	2.28
456.95	3
457.409	3.39
457.868	3.85
458.327	2.92
458.786	3.96
459.245	2.26
459.703	2.04
460.162	2.99
460.621	2.75
461.079	2.47
461.538	2.45
461.997	3.28
462.455	2.82
462.914	2.46
463.372	3.06
463.831	2.64
464.289	2.06
464.748	2.71
465.206	3.26
465.664	2.76
466.123	2.78
466.581	2.69
467.039	3.17
467.497	2.95
467.956	1.98
468.414	2.84
468.872	3.28
469.33	3.84
469.788	3.74
470.246	3.76
470.704	3.72
471.162	2.16
471.62	2.93
472.078	2.48
472.536	3.59
472.994	2.65
473.452	2.99
473.91	2.78
474.368	2.17
474.826	3.32
475.283	3.29
475.741	2.98
476.199	2.57
476.656	2.8
477.114	2.77
477.572	1.31
478.029	1.62
478.487	3.61
478.944	2.52
479.402	2.58
479.859	3.22
480.317	2.63
480.774	3.84
481.232	2.41
481.689	2.72
482.146	3.76
482.604	2.03
483.061	2.15
483.518	3.05
483.975	3.61
484.433	1.62
484.89	2.53
485.347	3.09
485.804	2.91
486.261	1.79
486.718	3.17
487.175	3.4
487.632	2.43
488.089	2.3
488.546	3.41
489.003	2.85
489.46	3.01
489.917	3.02
490.373	3.66
490.83	2.07
491.287	3.21
491.744	3.58
492.2	2.67
492.657	2.59
493.114	3.63
493.57	2.2
494.027	4.15
494.484	2.63
494.94	3.03
495.397	2.95
495.853	2.55
496.31	3.92
496.766	2.74
497.222	2.98
497.679	1.62
498.135	2.63
498.591	3.29
499.048	3.22
499.504	2.49
499.96	3.61
500.416	4.24
500.872	3.91
501.329	4.38
501.785	2.3
502.241	3.16
502.697	4
503.153	2.92
503.609	2.69
504.065	2.83
504.521	3.85
504.977	3.72
505.432	2.87
505.888	3.83
506.344	2.33
506.8	4.14
507.256	3.68
507.711	4.06
508.167	3.94
508.623	3.07
509.078	4
509.534	2.56
509.99	4.55
510.445	3.97
510.901	3.15
511.356	3.72
511.812	3.54
512.267	3.75
512.722	3.12
513.178	2.9
513.633	3.59
514.089	4.19
514.544	3.2
514.999	3.35
515.454	3.3
515.91	3.98
516.365	2.83
516.82	4.17
517.275	3.4
517.73	3.53
518.185	3.27
518.64	4.08
519.095	3.32
519.55	3.21
520.005	4.22
520.46	3.96
520.915	3.36
521.37	3.73
521.825	2.85
522.28	3.54
522.734	3.77
523.189	4.76
523.644	4.13
524.099	3.27
524.553	4.33
525.008	3.52
525.462	4.31
525.917	4.01
526.372	4.05
526.826	3.98
527.281	2.48
527.735	3.56
528.19	3.53
528.644	4.05
529.098	4.01
529.553	3.84
530.007	3.59
530.461	3.53
530.916	4.37
531.37	4.36
531.824	3.9
532.278	4.12
532.732	3.49
533.186	4.07
533.641	3.23
534.095	3.89
534.549	4.25
535.003	3.45
535.457	3.8
535.911	3.63
536.365	4.12
536.818	3.47
537.272	3.34
537.726	3.14
538.18	3.91
538.634	3.61
539.087	3.66
539.541	3.58
539.995	3.48
540.449	4.14
540.902	3.74
541.356	3.25
541.809	2.18
542.263	3.47
542.716	4.32
543.17	3.65
543.623	4.13
544.077	3.77
544.53	2.43
544.984	4.1
545.437	3.14
545.89	3.47
546.344	4.56
546.797	3.28
547.25	4.61
547.703	3.07
548.157	3.73
548.61	3.03
549.063	4.43
549.516	2.7
549.969	4.35
550.422	3.83
550.875	3.31
551.328	2.01
551.781	3.47
552.234	3.36
552.687	3.89
553.14	3.38
553.592	4.07
554.045	3.6
554.498	3.83
554.951	3.93
555.404	4.59
555.856	2.88
556.309	4.13
556.762	2.93
557.214	4.52
557.667	4.13
558.119	4.97
558.572	3.14
559.024	4.41
559.477	3.72
559.929	5.33
560.382	3.67
560.834	4.39
561.286	3.58
561.739	3.73
562.191	3.77
562.643	4.32
563.095	4.6
563.548	3.11
564	4.73
564.452	4.4
564.904	4.72
565.356	4.58
565.808	4.64
566.26	4.19
566.712	4.36
567.164	3.95
567.616	4.38
568.068	5.06
568.52	4.06
568.972	5.13
569.424	4.1
569.876	5.07
570.327	3.97
570.779	4.72
571.231	4.51
571.682	4.35
572.134	3.92
572.586	4.84
573.037	3.98
573.489	4.78
573.941	3.94
574.392	4.19
574.844	3.87
575.295	4.17
575.746	5.27
576.198	4.07
576.649	4.33
577.101	4.64
577.552	4.4
578.003	4.34
578.454	4.84
578.906	3.96
579.357	4.21
579.808	4.91
580.259	4.3
580.71	4.71
581.161	4.63
581.612	3.89
582.064	4.77
582.515	4.3
582.965	5.23
583.416	4.98
583.867	4.37
584.318	4.3
584.769	4.61
585.22	4.55
585.671	4.39
586.122	4.27
586.572	4.7
587.023	4.72
587.474	4.42
587.924	5.27
588.375	4.39
588.826	3.87
589.276	4.6
589.727	4.64
590.177	4.67
590.628	4.44
591.078	4.45
591.529	4.99
591.979	4.73
592.429	4.4
592.88	4.36
593.33	4.34
593.78	4.62
594.231	4.82
594.681	4.5
595.131	4.74
595.581	4.8
596.031	4.2
596.481	4.72
596.932	5.12
597.382	4.83
597.832	4.79
598.282	4.81
598.732	4.68
599.182	4.43
599.632	4.4
600.081	4.3
600.531	4.49
600.981	4.78
601.431	4.92
601.881	5.07
602.33	4.23
602.78	4.72
603.23	5.09
603.679	4.66
604.129	4.78
604.579	4.78
605.028	4.32
605.478	4.87
605.927	4.46
606.377	5.24
606.826	4.58
607.276	4.17
607.725	5.12
608.175	4.89
608.624	4.45
609.073	5
609.522	4.98
609.972	5.97
610.421	4.71
610.87	4.35
611.319	5.35
611.768	5.1
612.218	4.89
612.667	5.12
613.116	4.61
613.565	4.9
614.014	4.9
614.463	5.51
614.912	5.03
615.361	5.44
615.81	5.38
616.258	5.02
616.707	5.26
617.156	5.32
617.605	5.25
618.054	5.52
618.502	5.64
618.951	4.87
619.4	5.09
619.848	4.97
620.297	5.21
620.745	5.34
621.194	5.1
621.642	5
622.091	5.24
622.539	4.91
622.988	5.08
623.436	4.95
623.885	5.21
624.333	5.52
624.781	5.5
625.23	5.36
625.678	5.31
626.126	5.39
626.574	5.02
627.022	5.34
627.471	4.76
627.919	5.21
628.367	5.13
628.815	5.06
629.263	5.22
629.711	5.79
630.159	5.17
630.607	5.22
631.055	5.26
631.503	5.64
631.95	5.63
632.398	4.89
632.846	5.47
633.294	5.38
633.742	5.12
634.189	5.59
634.637	5.32
635.085	5.56
635.532	5.19
635.98	5.28
636.427	5.59
636.875	5.27
637.323	5.3
637.77	5.84
638.217	5.38
638.665	4.97
639.112	5.27
639.56	5.66
640.007	5.57
640.454	5.33
640.902	5.55
641.349	5.97
641.796	5.69
642.243	5.44
642.69	5.44
643.138	5.4
643.585	5.42
644.032	5.63
644.479	5.08
644.926	5.64
645.373	5.4
645.82	5.58
646.267	5.68
646.714	5.8
647.161	5.26
647.607	5.78
648.054	5.7
648.501	5.52
648.948	5.83
649.395	5.72
649.841	5.8
650.288	5.64
650.735	5.73
651.181	5.62
651.628	5.73
652.075	5.61
652.521	5.54
652.968	5.79
653.414	5.79
653.861	5.87
654.307	6.19
654.753	5.81
655.2	5.64
655.646	5.6
656.092	5.91
656.539	5.79
656.985	5.87
657.431	5.87
657.877	5.76
658.324	5.87
658.77	5.72
659.216	5.82
659.662	5.98
660.108	5.82
660.554	6.26
661	5.76
661.446	6.19
661.892	5.7
662.338	5.86
662.784	5.95
663.23	5.9
663.675	5.58
664.121	5.82
664.567	5.78
665.013	6.18
665.458	5.63
665.904	5.8
666.35	5.7
666.795	6.13
667.241	6.22
667.687	6.04
668.132	6.2
668.578	5.86
669.023	5.94
669.469	5.74
669.914	5.71
670.359	5.72
670.805	6.06
671.25	5.91
671.695	5.9
672.141	5.97
672.586	5.97
673.031	6.4
673.476	5.75
673.922	6.61
674.367	5.84
674.812	6.06
675.257	6.22
675.702	6.06
676.147	6.5
676.592	6.13
677.037	6.15
677.482	6.09
677.927	6.32
678.372	6.52
678.817	6.23
679.261	6.38
679.706	5.96
680.151	6.36
680.596	6.33
681.04	6.68
681.485	6.33
681.93	6.26
682.374	6.25
682.819	6.2
683.264	6.28
683.708	5.99
684.153	6.18
684.597	6.36
685.042	6.47
685.486	6.28
685.93	6.49
686.375	6.18
686.819	6.34
687.263	6.66
687.708	6.34
688.152	6.51
688.596	6.73
689.04	5.92
689.485	6.39
689.929	6.5
690.373	6.42
690.817	6.54
691.261	6.51
691.705	6.28
692.149	6.44
692.593	6.26
693.037	6.6
693.481	6.29
693.925	6.59
694.369	6.49
694.812	6.45
695.256	6.1
695.7	6.67
696.144	6.69
696.587	6.57
697.031	6.86
697.475	6.42
697.918	6.65
698.362	6.65
698.806	6.77
699.249	6.74
699.693	6.39
700.136	6.82
700.58	6.66
701.023	6.94
701.466	6.54
701.91	6.53
702.353	6.83
702.796	6.61
703.24	6.54
703.683	6.9
704.126	6.79
704.569	6.65
705.013	6.62
705.456	7.06
705.899	7.1
706.342	7.17
706.785	6.63
707.228	6.65
707.671	6.78
708.114	7.14
708.557	6.64
709	6.64
709.443	6.74
709.886	6.58
710.328	6.85
710.771	6.73
711.214	7.11
711.657	6.69
712.099	6.82
712.542	6.93
712.985	6.54
713.427	6.73
713.87	6.63
714.313	6.65
714.755	6.97
715.198	6.88
715.64	7.14
716.083	7.12
716.525	7.11
716.967	7.1
717.41	6.93
717.852	6.81
718.295	6.95
718.737	6.65
719.179	6.84
719.621	7.18
720.063	7.13
720.506	6.72
720.948	7.2
721.39	7.03
721.832	7.08
722.274	7.25
722.716	6.96
723.158	7.31
723.6	7.04
724.042	7.13
724.484	7.23
724.926	7.03
725.368	7.21
725.81	7.31
726.251	7.23
726.693	7.23
727.135	7.16
727.577	7.34
728.018	7.1
728.46	6.81
728.902	7.24
729.343	7.3
729.785	7.26
730.226	7.56
730.668	6.98
731.109	7.18
731.551	7.11
731.992	7.32
732.434	7.57
732.875	7.12
733.316	7.25
733.758	7.17
734.199	7.04
734.64	7.25
735.081	7.13
735.523	7.33
735.964	6.98
736.405	7.53
736.846	7.31
737.287	7.1
737.728	7.04
738.169	7.32
738.61	7.13
739.051	7.37
739.492	7.37
739.933	7.47
740.374	7.44
740.815	7.69
741.256	7.39
741.696	7.54
742.137	7.36
742.578	7.3
743.019	7.09
743.459	7.24
743.9	7.38
744.341	7.53
744.781	7.45
745.222	7.12
745.662	7.67
746.103	7.61
746.543	6.99
746.984	7.69
747.424	7.72
747.865	7.67
748.305	7.59
748.745	7.75
749.186	7.6
749.626	7.58
750.066	7.55
750.506	7.52
750.947	7.85
751.387	7.76
751.827	7.53
752.267	7.64
752.707	7.6
753.147	7.76
753.587	8.22
754.027	7.36
754.467	7.76
754.907	7.92
755.347	7.56
755.787	7.81
756.227	8.12
756.667	7.98
757.107	7.82
757.546	7.96
757.986	7.63
758.426	7.95
758.865	7.61
759.305	7.53
759.745	7.96
760.184	8.32
760.624	7.58
761.063	7.82
761.503	7.96
761.943	7.96
762.382	7.44
762.821	8.3
763.261	8.26
763.7	8.19
764.14	7.75
764.579	8.1
765.018	7.89
765.457	7.96
765.897	7.96
766.336	7.93
766.775	7.88
767.214	8.1
767.653	7.88
768.092	8.16
768.531	8.17
768.97	7.71
769.409	7.94
769.848	8
770.287	8.34
770.726	8.35
771.165	7.98
771.604	8.12
772.043	7.98
772.482	8.29
772.92	7.96
773.359	7.95
773.798	7.7
774.237	8.37
774.675	8.04
775.114	8.35
775.553	8.19
775.991	8.19
776.43	8.22
776.868	8.37
777.307	8.69
777.745	7.95
778.184	8.39
778.622	8.46
779.06	8.36
779.499	8.58
779.937	8.3
780.375	8.01
780.814	8.2
781.252	8.4
781.69	8.18
782.128	8.39
782.566	8.39
783.004	8.52
783.443	8.37
783.881	8.35
784.319	8.3
784.757	8.34
785.195	8.41
785.633	8.66
786.071	8.86
786.508	8.15
786.946	8.3
787.384	8.5
787.822	8.59
788.26	8.43
788.697	8.63
789.135	8.67
789.573	8.45
790.011	8.44
790.448	8.56
790.886	8.66
791.323	8.45
791.761	8.44
792.198	8.73
792.636	8.53
793.073	8.56
793.511	8.61
793.948	8.56
794.386	8.91
794.823	8.42
795.26	8.54
795.698	8.53
796.135	8.51
796.572	8.6
797.009	8.36
797.446	8.98
797.884	8.69
798.321	8.63
798.758	8.81
799.195	8.74
799.632	8.73
800.069	8.71
800.506	8.36
800.943	8.53
801.38	8.67
801.817	8.9
802.254	8.76
802.69	8.72
803.127	8.83
803.564	8.81
804.001	8.91
804.438	8.51
804.874	8.94
805.311	9.17
805.748	8.8
806.184	8.84
806.621	8.68
807.057	8.77
807.494	8.96
807.93	8.73
808.367	8.67
808.803	9.02
809.24	8.89
809.676	9.07
810.112	8.94
810.549	8.8
810.985	9.04
811.421	9.31
811.857	8.9
812.294	9.19
812.73	9.14
813.166	8.88
813.602	8.84
814.038	8.98
814.474	9.07
814.91	9.12
815.346	8.92
815.782	8.99
816.218	9.15
816.654	9.07
817.09	9.07
817.526	9.12
817.962	9.03
818.398	9.42
818.833	9.58
819.269	8.87
819.705	9.01
820.141	9.19
820.576	9.23
821.012	9.62
821.447	9.14
821.883	9.21
822.319	9.4
822.754	9.26
823.19	9.49
823.625	9.14
824.061	9.03
824.496	9.34
824.931	9.46
825.367	9.33
825.802	9.32
826.237	9.54
826.673	9.52
827.108	9.24
827.543	9.6
827.978	9.19
828.413	9.17
828.849	9.19
829.284	9.56
829.719	9.53
830.154	9.53
830.589	9.68
831.024	9.73
831.459	9.18
831.894	9.38
832.329	9.14
832.763	9.47
833.198	9.5
833.633	9.58
834.068	9.43
834.503	9.51
834.937	9.57
835.372	9.65
835.807	9.62
836.241	9.63
836.676	9.68
837.111	9.46
837.545	9.57
837.98	9.76
838.414	9.65
838.849	9.66
839.283	9.53
839.717	9.82
840.152	9.84
840.586	9.79
841.021	9.56
841.455	9.65
841.889	9.63
842.323	9.88
842.758	9.73
843.192	9.81
843.626	9.93
844.06	9.83
844.494	9.67
844.928	9.93
845.362	10
845.796	9.76
846.23	9.98
846.664	9.88
