Data from JCR0025_Black1_Reflection_00001.txt Node
Date: Fri Jul 31 11:58:18 ACST 2020
User: Stacey Dix
Spectrometer: MAYP113282
Scans to average: 1
Trigger mode: 0
Integration Time (sec): 1.000000E-1
Electric dark correction enabled: true
Boxcar width: 0
XAxis mode: Wavelengths
Number of Pixels in Spectrum: 2068
>>>>>Begin Spectral Data<<<<<
198.791	-68.18
199.266	93.75
199.74	15
200.215	-225
200.69	15.99
201.164	13.52
201.639	-3.88
202.114	25.09
202.588	32.56
203.063	36.45
203.537	5.65
204.012	-15.07
204.486	8.86
204.961	19.26
205.435	10.64
205.909	24.1
206.384	4.52
206.858	0.55
207.332	26.14
207.807	14.5
208.281	19.76
208.755	8.85
209.229	6.09
209.703	-0.53
210.177	30.17
210.651	15.71
211.126	0.53
211.6	-2.95
212.074	10.66
212.548	28.94
213.021	3.96
213.495	35.92
213.969	2.9
214.443	15.55
214.917	0.34
215.391	20.13
215.864	4.73
216.338	-3.63
216.812	8.2
217.286	10.45
217.759	9.3
218.233	5.48
218.706	7.51
219.18	13.41
219.654	0.78
220.127	8.97
220.6	-0.21
221.074	12.57
221.547	5.26
222.021	13.76
222.494	9.36
222.967	15.51
223.441	9.66
223.914	14.36
224.387	8.42
224.86	12.45
225.334	11.78
225.807	6.49
226.28	5.46
226.753	6.53
227.226	10.31
227.699	6.14
228.172	8.02
228.645	10.33
229.118	4.73
229.591	10.07
230.064	8.04
230.537	8.73
231.01	9.22
231.482	6.53
231.955	7.64
232.428	7.96
232.901	7.58
233.373	7.6
233.846	7.81
234.319	7.17
234.791	7.41
235.264	8.37
235.736	5.65
236.209	7.15
236.681	7.7
237.154	7.3
237.626	8.31
238.099	6.46
238.571	7.16
239.044	7.93
239.516	7.79
239.988	6.52
240.46	7.53
240.933	6.22
241.405	7.86
241.877	8.32
242.349	7.6
242.821	7.11
243.293	7.03
243.765	6.76
244.237	6.77
244.71	8.06
245.181	6.32
245.653	6.62
246.125	7.5
246.597	8.37
247.069	5.83
247.541	6.98
248.013	7
248.485	7.54
248.956	7.04
249.428	5.33
249.9	6.76
250.371	6.81
250.843	6.81
251.315	6.52
251.786	6.33
252.258	6.03
252.729	7.91
253.201	6.1
253.672	6.41
254.144	6.85
254.615	6.18
255.086	6.55
255.558	6.78
256.029	6.37
256.5	7.18
256.972	6.26
257.443	6.23
257.914	5.96
258.385	6.35
258.856	6.41
259.327	6.65
259.799	6.78
260.27	6.84
260.741	5.78
261.212	6.7
261.683	6.78
262.154	6.18
262.624	6.42
263.095	6.87
263.566	6.05
264.037	6.79
264.508	5.92
264.979	6.41
265.449	6.45
265.92	6.34
266.391	5.9
266.861	6.24
267.332	6.2
267.803	6.34
268.273	6.48
268.744	5.83
269.214	5.78
269.685	6.23
270.155	6.62
270.626	6.74
271.096	6.19
271.566	6.29
272.037	6.87
272.507	6.64
272.977	6.7
273.448	6.48
273.918	5.83
274.388	6.64
274.858	5.34
275.328	6.66
275.798	5.81
276.268	6.25
276.738	6.02
277.208	6.18
277.678	6.64
278.148	6.07
278.618	6.09
279.088	6.66
279.558	6.03
280.028	5.64
280.498	6.2
280.968	6.58
281.437	5.12
281.907	5.67
282.377	6.18
282.847	6.12
283.316	6.33
283.786	6.27
284.255	5.79
284.725	6.41
285.194	6.38
285.664	6.26
286.133	6.17
286.603	5.51
287.072	6.14
287.542	6.53
288.011	6.51
288.48	5.89
288.95	6.31
289.419	6.16
289.888	5.42
290.357	6.15
290.827	5.74
291.296	6.6
291.765	5.69
292.234	6.29
292.703	6.17
293.172	6.75
293.641	5.62
294.11	6.38
294.579	5.76
295.048	6.12
295.517	5.62
295.986	7.13
296.455	6.41
296.923	7.28
297.392	5.7
297.861	5.71
298.33	5.58
298.798	6.57
299.267	7.47
299.736	6.14
300.204	6.1
300.673	6.19
301.141	5.66
301.61	7.03
302.079	6.08
302.547	5.98
303.015	5.74
303.484	6.02
303.952	6.56
304.421	5.97
304.889	5.98
305.357	7.04
305.825	6
306.294	6.5
306.762	5.97
307.23	7.2
307.698	6.68
308.166	6.13
308.634	6.64
309.103	5.9
309.571	6.11
310.039	6.56
310.507	5.91
310.975	6.85
311.442	6.82
311.91	6.6
312.378	7.48
312.846	6.19
313.314	6.75
313.782	6.26
314.249	6.68
314.717	7.01
315.185	6.32
315.652	6.57
316.12	6.1
316.588	6.27
317.055	6.92
317.523	6.36
317.99	7.04
318.458	6.34
318.925	6.65
319.393	5.95
319.86	7.23
320.328	6.9
320.795	6.51
321.262	7.28
321.73	5.53
322.197	6.36
322.664	6.39
323.131	6.4
323.598	7.55
324.066	5.8
324.533	6.42
325	7.64
325.467	6.87
325.934	6.59
326.401	6.06
326.868	7.22
327.335	6.93
327.802	6.45
328.269	6.35
328.735	6.99
329.202	7.35
329.669	6.14
330.136	6.68
330.603	7.15
331.069	6.98
331.536	6.9
332.003	6.6
332.469	6.63
332.936	6.48
333.402	7.02
333.869	7.13
334.336	6.96
334.802	7.08
335.268	5.82
335.735	6.27
336.201	6.67
336.668	6.36
337.134	6.03
337.6	6.06
338.067	6.24
338.533	5.93
338.999	5.73
339.465	6.92
339.931	6.53
340.398	6.35
340.864	6.25
341.33	5.8
341.796	7.28
342.262	6.21
342.728	6.19
343.194	6.72
343.66	5.77
344.126	6.72
344.592	6.33
345.057	6.8
345.523	5.83
345.989	6.87
346.455	7.42
346.921	7.58
347.386	6.88
347.852	6.59
348.318	5.56
348.783	7.37
349.249	5.93
349.714	6.62
350.18	6.43
350.645	6.69
351.111	6.8
351.576	6.13
352.042	7.23
352.507	6.69
352.973	5.82
353.438	6.5
353.903	7.12
354.369	5.84
354.834	6.69
355.299	6.74
355.764	6.62
356.229	5.93
356.695	6.74
357.16	6.56
357.625	6.96
358.09	6.47
358.555	7.14
359.02	5.57
359.485	5.96
359.95	5.77
360.415	6.41
360.879	7.09
361.344	7.14
361.809	6.16
362.274	5.96
362.739	6.15
363.203	6.27
363.668	6.38
364.133	6.14
364.597	6.94
365.062	6.46
365.527	6.95
365.991	5.32
366.456	6.78
366.92	6.52
367.385	5.89
367.849	6.89
368.314	5.48
368.778	6.59
369.242	7.13
369.707	7.17
370.171	5.88
370.635	5.6
371.1	5.78
371.564	6.77
372.028	5.81
372.492	5.27
372.956	5.66
373.42	6.16
373.884	5.77
374.348	5.58
374.812	5.83
375.276	6.06
375.74	5.2
376.204	6.61
376.668	6.71
377.132	6.17
377.596	5.51
378.06	5.32
378.524	5.67
378.987	6.01
379.451	5.93
379.915	6.48
380.378	6.04
380.842	6.63
381.306	6.24
381.769	5.36
382.233	7.82
382.696	5.77
383.16	6.63
383.623	5.71
384.087	5.55
384.55	5.54
385.014	5.56
385.477	6.28
385.94	5.61
386.404	6.22
386.867	6.45
387.33	5.58
387.793	6.8
388.256	5.5
388.72	5.89
389.183	6.87
389.646	5.66
390.109	6.56
390.572	5.86
391.035	5.85
391.498	6.54
391.961	5.88
392.424	5.36
392.887	5.94
393.35	5.94
393.812	5.8
394.275	5.49
394.738	6.07
395.201	6.41
395.664	6.63
396.126	6.32
396.589	5.53
397.052	6.03
397.514	5.73
397.977	5.72
398.439	6.41
398.902	5.92
399.364	6.44
399.827	5.31
400.289	6.07
400.752	6.03
401.214	6.32
401.676	6.23
402.139	5.69
402.601	5.38
403.063	5.79
403.525	6.28
403.988	6.22
404.45	6.04
404.912	5.88
405.374	5.72
405.836	4.94
406.298	6.43
406.76	5.74
407.222	5.86
407.684	5.46
408.146	5.74
408.608	5.11
409.07	6.19
409.532	5.71
409.994	4.89
410.456	5.77
410.917	6.69
411.379	6.12
411.841	5.44
412.303	5.15
412.764	5.94
413.226	5.4
413.687	5.51
414.149	5.32
414.611	5.79
415.072	6.5
415.534	5.23
415.995	6.02
416.457	4.81
416.918	5.54
417.379	6.21
417.841	5.44
418.302	5.81
418.763	5.94
419.225	6.33
419.686	6.92
420.147	5.2
420.608	6.27
421.069	5.83
421.53	6.04
421.991	6.18
422.453	5.48
422.914	6.3
423.375	5.77
423.836	4.99
424.297	5.57
424.757	5.78
425.218	4.52
425.679	6.46
426.14	4.84
426.601	6.26
427.062	5.64
427.522	4.51
427.983	6.59
428.444	5.27
428.904	5.61
429.365	5.43
429.826	6.82
430.286	6.71
430.747	6.22
431.207	5.84
431.668	5.93
432.128	6.35
432.589	5.98
433.049	4.7
433.509	4.34
433.97	5.47
434.43	6.71
434.89	6.1
435.351	4.24
435.811	5.7
436.271	5.53
436.731	5.68
437.191	6.22
437.651	6.97
438.112	6.63
438.572	6.14
439.032	4.59
439.492	6.6
439.952	5.98
440.412	4.59
440.871	6.01
441.331	6.2
441.791	6.11
442.251	5
442.711	5.98
443.171	5.58
443.63	5.11
444.09	6.66
444.55	7.02
445.009	7.8
445.469	6.31
445.929	7.58
446.388	4.78
446.848	6.1
447.307	6.35
447.767	6.37
448.226	6.43
448.686	6.4
449.145	5.19
449.604	4.61
450.064	5.13
450.523	6.95
450.982	5.13
451.442	6.8
451.901	7.25
452.36	5.92
452.819	5.95
453.278	6.45
453.737	5.44
454.197	5.56
454.656	4.53
455.115	4.16
455.574	6.98
456.033	6.73
456.492	5.74
456.95	5.41
457.409	5.38
457.868	5.84
458.327	5.93
458.786	4.54
459.245	5.78
459.703	5.12
460.162	5.75
460.621	6.03
461.079	5.46
461.538	5.77
461.997	5.69
462.455	6.72
462.914	5.39
463.372	4.91
463.831	4.18
464.289	7.26
464.748	6.06
465.206	6.36
465.664	4.95
466.123	6.16
466.581	6.67
467.039	6.18
467.497	5.06
467.956	6.13
468.414	6.52
468.872	2.78
469.33	5.85
469.788	7.14
470.246	5.4
470.704	5.77
471.162	5.56
471.62	7.33
472.078	6.87
472.536	4.37
472.994	7.68
473.452	5.5
473.91	6.21
474.368	6.37
474.826	8.36
475.283	6.65
475.741	6.14
476.199	6.93
476.656	6.85
477.114	6.38
477.572	6.83
478.029	6.27
478.487	5.08
478.944	7.66
479.402	6.91
479.859	5.77
480.317	6.92
480.774	7.51
481.232	5.35
481.689	6.69
482.146	5.45
482.604	5.6
483.061	7.09
483.518	5.77
483.975	6.26
484.433	5.48
484.89	7.92
485.347	4.2
485.804	6.87
486.261	5.87
486.718	6.82
487.175	7.94
487.632	7.89
488.089	5.82
488.546	8.87
489.003	9.13
489.46	6.16
489.917	8.72
490.373	6.74
490.83	6.57
491.287	8.81
491.744	5.27
492.2	5.81
492.657	7.94
493.114	7.17
493.57	6.18
494.027	6.95
494.484	6.57
494.94	5.17
495.397	7.36
495.853	7.39
496.31	8.51
496.766	8.97
497.222	7.68
497.679	6.51
498.135	5.89
498.591	4.95
499.048	6.53
499.504	7.25
499.96	6.72
500.416	7.13
500.872	6.33
501.329	6.73
501.785	7.72
502.241	5.74
502.697	8.34
503.153	7.02
503.609	7.73
504.065	6.76
504.521	6.97
504.977	8.67
505.432	4.96
505.888	5.97
506.344	6.7
506.8	8.15
507.256	8.62
507.711	7.25
508.167	8.12
508.623	6.7
509.078	8.15
509.534	7.65
509.99	7.81
510.445	6.87
510.901	6.22
511.356	7.17
511.812	8.42
512.267	6.17
512.722	6.54
513.178	7.19
513.633	6.56
514.089	8.31
514.544	8.2
514.999	6.61
515.454	7.82
515.91	8.14
516.365	7.28
516.82	6.97
517.275	7.3
517.73	8.5
518.185	7.78
518.64	8.91
519.095	7.8
519.55	6.78
520.005	7.65
520.46	6.5
520.915	6.99
521.37	7.07
521.825	6.73
522.28	6.65
522.734	7.42
523.189	8.26
523.644	7.54
524.099	7.62
524.553	6.64
525.008	8.53
525.462	8.17
525.917	8.09
526.372	6.92
526.826	7.12
527.281	9.56
527.735	6.91
528.19	7.65
528.644	8.18
529.098	6.59
529.553	7.81
530.007	8.21
530.461	6.97
530.916	6.5
531.37	7.33
531.824	7.06
532.278	6.45
532.732	6.79
533.186	7.14
533.641	6.83
534.095	8.87
534.549	7.82
535.003	7.01
535.457	9.25
535.911	7.26
536.365	7.58
536.818	8.31
537.272	7.96
537.726	8.59
538.18	8.15
538.634	7.43
539.087	8.11
539.541	7.99
539.995	7.49
540.449	7.1
540.902	7.43
541.356	7.23
541.809	7.81
542.263	7.23
542.716	7.29
543.17	6.31
543.623	9.02
544.077	8.65
544.53	7.43
544.984	7.36
545.437	6.93
545.89	8.13
546.344	6.95
546.797	8.38
547.25	8.9
547.703	8.36
548.157	6.72
548.61	8.83
549.063	8.68
549.516	8.18
549.969	8.92
550.422	8.22
550.875	8.55
551.328	8.2
551.781	7.95
552.234	8.39
552.687	8.51
553.14	7.99
553.592	7.15
554.045	8.24
554.498	8.37
554.951	7.21
555.404	7.9
555.856	9.3
556.309	7.98
556.762	8.62
557.214	7.03
557.667	8.55
558.119	8.49
558.572	7.63
559.024	8.17
559.477	8.19
559.929	7.69
560.382	7.2
560.834	8.18
561.286	7.65
561.739	7.8
562.191	8.11
562.643	8.13
563.095	7.97
563.548	8.18
564	8
564.452	8.72
564.904	7.98
565.356	7.85
565.808	8.4
566.26	8.48
566.712	8.07
567.164	9.46
567.616	7.19
568.068	8.84
568.52	8.86
568.972	8.47
569.424	7.26
569.876	8.23
570.327	7.77
570.779	8.07
571.231	7.93
571.682	7.55
572.134	8.75
572.586	8.88
573.037	9.12
573.489	7.8
573.941	7.98
574.392	7.95
574.844	8
575.295	8.85
575.746	8.17
576.198	8.33
576.649	7.7
577.101	7.9
577.552	8.78
578.003	7.48
578.454	8.82
578.906	8.19
579.357	7.93
579.808	8.28
580.259	8.2
580.71	8.91
581.161	8.64
581.612	7.98
582.064	7.97
582.515	7.98
582.965	8.33
583.416	8.74
583.867	8.49
584.318	8.18
584.769	9.57
585.22	7.8
585.671	8.47
586.122	8.63
586.572	8.98
587.023	8.64
587.474	7.91
587.924	9.18
588.375	7.59
588.826	8.21
589.276	8.39
589.727	7.27
590.177	8.37
590.628	8.33
591.078	8.25
591.529	8.75
591.979	8.85
592.429	7.9
592.88	8.91
593.33	7.91
593.78	8.42
594.231	8.35
594.681	7.79
595.131	7.95
595.581	9.15
596.031	8.98
596.481	7
596.932	9.97
597.382	8.57
597.832	8.31
598.282	8.07
598.732	8.83
599.182	8.07
599.632	8.48
600.081	8.41
600.531	8.87
600.981	8.1
601.431	8.1
601.881	8.27
602.33	9.04
602.78	8.41
603.23	8.92
603.679	9.14
604.129	9.06
604.579	8.3
605.028	8.83
605.478	8.48
605.927	8.78
606.377	8.73
606.826	8.37
607.276	8.04
607.725	9.24
608.175	9.16
608.624	9.15
609.073	8.69
609.522	9.13
609.972	8.05
610.421	9.08
610.87	8.93
611.319	8.68
611.768	8.62
612.218	8.89
612.667	8.44
613.116	8.56
613.565	9.61
614.014	8.56
614.463	8.19
614.912	8.75
615.361	8.81
615.81	8.98
616.258	8.85
616.707	8.62
617.156	9.58
617.605	8.49
618.054	9.4
618.502	8.27
618.951	9.09
619.4	8.45
619.848	8.72
620.297	8.91
620.745	9.51
621.194	8.94
621.642	8.96
622.091	8.55
622.539	9.62
622.988	8.77
623.436	8.9
623.885	8.87
624.333	9.7
624.781	9.36
625.23	9.06
625.678	8.52
626.126	9.45
626.574	9.05
627.022	8.45
627.471	8.94
627.919	8.73
628.367	9.5
628.815	9.21
629.263	8.33
629.711	8.91
630.159	9.43
630.607	8.76
631.055	8.77
631.503	9.15
631.95	9.12
632.398	8.92
632.846	9.07
633.294	9.11
633.742	8.98
634.189	9.75
634.637	9.3
635.085	9.02
635.532	8.85
635.98	9.04
636.427	9.03
636.875	9.04
637.323	9.05
637.77	8.92
638.217	9.2
638.665	8.87
639.112	9.39
639.56	8.68
640.007	9.45
640.454	9.01
640.902	9.29
641.349	9.15
641.796	9.26
642.243	9.28
642.69	9.14
643.138	8.59
643.585	8.9
644.032	8.94
644.479	8.89
644.926	8.84
645.373	8.79
645.82	9.15
646.267	8.67
646.714	8.98
647.161	9.12
647.607	9.38
648.054	8.78
648.501	9.78
648.948	8.79
649.395	8.57
649.841	8.98
650.288	9.23
650.735	9.58
651.181	8.63
651.628	9.2
652.075	8.95
652.521	9.12
652.968	9.14
653.414	9.03
653.861	9.02
654.307	9.26
654.753	8.75
655.2	9.45
655.646	8.31
656.092	9.25
656.539	9.49
656.985	8.9
657.431	9.43
657.877	9.45
658.324	9.18
658.77	9.29
659.216	9.35
659.662	8.67
660.108	9.51
660.554	8.96
661	9.22
661.446	9.62
661.892	9.57
662.338	9.18
662.784	9.52
663.23	8.57
663.675	9.26
664.121	9.79
664.567	9.23
665.013	9.18
665.458	9.49
665.904	8.97
666.35	9.37
666.795	9.17
667.241	10.23
667.687	8.84
668.132	9.05
668.578	9.27
669.023	9.46
669.469	9.34
669.914	8.78
670.359	9.65
670.805	9.57
671.25	8.81
671.695	9.38
672.141	9.64
672.586	10.05
673.031	9.41
673.476	9.31
673.922	9.42
674.367	9.26
674.812	9.41
675.257	9.01
675.702	9.43
676.147	9.05
676.592	9.51
677.037	8.85
677.482	9.65
677.927	9.61
678.372	9.33
678.817	9.41
679.261	9.57
679.706	9.64
680.151	9.62
680.596	9.52
681.04	9.65
681.485	9.52
681.93	8.94
682.374	9.53
682.819	10.18
683.264	10.03
683.708	9.67
684.153	9.45
684.597	9.52
685.042	9.99
685.486	9.7
685.93	9.83
686.375	9.78
686.819	9.28
687.263	9.59
687.708	10.28
688.152	9.79
688.596	9.67
689.04	9.41
689.485	9.97
689.929	10.2
690.373	9.36
690.817	9.81
691.261	9.69
691.705	9.68
692.149	9.9
692.593	9.34
693.037	9.86
693.481	9.99
693.925	9.69
694.369	9.82
694.812	9.83
695.256	9.63
695.7	9.68
696.144	9.42
696.587	9.81
697.031	9.76
697.475	9.79
697.918	9.7
698.362	9.86
698.806	9.93
699.249	9.92
699.693	10.02
700.136	9.51
700.58	9.8
701.023	9.4
701.466	9.45
701.91	10.15
702.353	9.68
702.796	9.8
703.24	9.74
703.683	9.87
704.126	10.02
704.569	10.01
705.013	9.87
705.456	10.3
705.899	9.94
706.342	9.54
706.785	10.23
707.228	10.29
707.671	9.91
708.114	10.15
708.557	9.7
709	9.71
709.443	9.81
709.886	10.19
710.328	10.31
710.771	10.37
711.214	10.39
711.657	9.89
712.099	10.21
712.542	9.79
712.985	10.19
713.427	9.92
713.87	10.07
714.313	9.87
714.755	10.18
715.198	10.12
715.64	9.85
716.083	10.25
716.525	9.89
716.967	10.15
717.41	10.55
717.852	9.86
718.295	10.26
718.737	10.19
719.179	10.02
719.621	10.27
720.063	10.12
720.506	10.24
720.948	10.4
721.39	10.05
721.832	9.56
722.274	10.46
722.716	10.21
723.158	9.96
723.6	10.26
724.042	10.11
724.484	10.18
724.926	10.26
725.368	10.01
725.81	9.98
726.251	10.43
726.693	9.99
727.135	10.3
727.577	10.55
728.018	10.48
728.46	10.5
728.902	10.05
729.343	10.34
729.785	10.22
730.226	10.45
730.668	10.25
731.109	10.38
731.551	10.33
731.992	10.05
732.434	10.04
732.875	10.86
733.316	10.71
733.758	10.53
734.199	10.41
734.64	10.5
735.081	10.14
735.523	10.92
735.964	10.65
736.405	10.48
736.846	10.35
737.287	10.93
737.728	10.09
738.169	10.65
738.61	10.55
739.051	10.12
739.492	10.39
739.933	10.52
740.374	9.94
740.815	10.48
741.256	10.98
741.696	10.89
742.137	9.91
742.578	10.73
743.019	10.58
743.459	10.83
743.9	10.53
744.341	10.63
744.781	10.36
745.222	10.48
745.662	10.43
746.103	10.7
746.543	10.68
746.984	10.19
747.424	10.55
747.865	10.5
748.305	10.7
748.745	10.21
749.186	10.77
749.626	10.3
750.066	10.79
750.506	10.85
750.947	10.36
751.387	10.94
751.827	10.22
752.267	10.86
752.707	10.85
753.147	10.68
753.587	10.61
754.027	10.92
754.467	10.12
754.907	10.91
755.347	10.89
755.787	10.8
756.227	11.34
756.667	10.65
757.107	10.61
757.546	10.74
757.986	10.47
758.426	10.88
758.865	10.75
759.305	10.67
759.745	10.72
760.184	10.91
760.624	10.67
761.063	11.07
761.503	10.7
761.943	10.65
762.382	10.42
762.821	10.95
763.261	10.3
763.7	10.75
764.14	11.29
764.579	11.06
765.018	10.97
765.457	10.9
765.897	11.18
766.336	11.24
766.775	10.78
767.214	10.99
767.653	10.85
768.092	10.87
768.531	11.29
768.97	11.48
769.409	11.08
769.848	11.14
770.287	11.05
770.726	11.07
771.165	11.16
771.604	11.13
772.043	11.07
772.482	11.09
772.92	11.18
773.359	11.16
773.798	11.26
774.237	11.13
774.675	11.56
775.114	10.77
775.553	11.35
775.991	11.25
776.43	11.18
776.868	10.86
777.307	10.59
777.745	10.81
778.184	11.73
778.622	11.13
779.06	11.43
779.499	11.09
779.937	11.29
780.375	11.14
780.814	10.82
781.252	10.91
781.69	11.4
782.128	11.59
782.566	11.41
783.004	10.94
783.443	11.06
783.881	11.32
784.319	11.08
784.757	11.58
785.195	11.46
785.633	11.41
786.071	11.77
786.508	11.36
786.946	11.36
787.384	11.46
787.822	11.57
788.26	11.64
788.697	11.65
789.135	11.22
789.573	11.59
790.011	11.79
790.448	11.54
790.886	11.57
791.323	11.57
791.761	11.42
792.198	11.25
792.636	11.57
793.073	11.16
793.511	11.96
793.948	11.18
794.386	11.69
794.823	11.8
795.26	11.79
795.698	11.62
796.135	11.29
796.572	11.56
797.009	11.55
797.446	11.95
797.884	11.26
798.321	11.32
798.758	11.44
799.195	11.67
799.632	11.41
800.069	11.86
800.506	11.95
800.943	11.35
801.38	11.73
801.817	11.72
802.254	11.74
802.69	12.08
803.127	11.51
803.564	11.85
804.001	11.6
804.438	11.8
804.874	12.21
805.311	11.9
805.748	11.82
806.184	11.83
806.621	12
807.057	11.97
807.494	11.9
807.93	11.86
808.367	12.08
808.803	11.73
809.24	11.82
809.676	12.14
810.112	11.92
810.549	12.16
810.985	11.94
811.421	11.7
811.857	11.83
812.294	11.51
812.73	12.33
813.166	11.95
813.602	11.88
814.038	11.91
814.474	11.73
814.91	12.04
815.346	12.28
815.782	12.08
816.218	12.19
816.654	12.34
817.09	11.83
817.526	12.01
817.962	12.11
818.398	12.32
818.833	12.24
819.269	12.1
819.705	12.39
820.141	11.82
820.576	11.66
821.012	12.19
821.447	12.22
821.883	12.49
822.319	12.48
822.754	12.17
823.19	11.95
823.625	11.52
824.061	12.11
824.496	12.16
824.931	12.2
825.367	11.93
825.802	12.54
826.237	12.49
826.673	12.58
827.108	12.2
827.543	12.15
827.978	12.2
828.413	12.05
828.849	12.55
829.284	11.93
829.719	12.39
830.154	12.6
830.589	12.49
831.024	12.77
831.459	12.23
831.894	12.35
832.329	12.49
832.763	12.47
833.198	12.27
833.633	12.34
834.068	12.49
834.503	12.42
834.937	12.6
835.372	12.62
835.807	12.79
836.241	12.44
