Data from JCR0018_Black2_Reflection_00002.txt Node
Date: Thu Jul 23 16:27:21 ACST 2020
User: Stacey Dix
Spectrometer: MAYP113282
Scans to average: 1
Trigger mode: 0
Integration Time (sec): 1.000000E-1
Electric dark correction enabled: true
Boxcar width: 0
XAxis mode: Wavelengths
Number of Pixels in Spectrum: 2068
>>>>>Begin Spectral Data<<<<<
198.791	-308.33
199.266	-16.67
199.74	-58.33
200.215	0
200.69	-7.08
201.164	9.62
201.639	11.9
202.114	15.92
202.588	-3.41
203.063	23.06
203.537	6.21
204.012	15.24
204.486	7.91
204.961	16.67
205.435	-3.04
205.909	19.22
206.384	8.9
206.858	26.01
207.332	21.92
207.807	-6.86
208.281	14.8
208.755	1.36
209.229	5.12
209.703	23.42
210.177	1.36
210.651	6.88
211.126	26.54
211.6	17
212.074	30.29
212.548	19.29
213.021	14.27
213.495	24.7
213.969	30.61
214.443	11.7
214.917	24.76
215.391	19.18
215.864	12.11
216.338	29.19
216.812	27.43
217.286	20.02
217.759	31.73
218.233	23.8
218.706	28.5
219.18	27.98
219.654	32.27
220.127	23.66
220.6	28.18
221.074	28.22
221.547	30.36
222.021	30.04
222.494	32.63
222.967	29.54
223.441	25.93
223.914	36.13
224.387	29.06
224.86	34.97
225.334	31.54
225.807	35.48
226.28	34.51
226.753	31.37
227.226	32.07
227.699	33.86
228.172	31.4
228.645	31.92
229.118	32.39
229.591	28.94
230.064	34.37
230.537	35.68
231.01	37.48
231.482	32.99
231.955	36.6
232.428	33.73
232.901	31.58
233.373	36.92
233.846	31.03
234.319	34.57
234.791	35.94
235.264	33.37
235.736	33.41
236.209	31.62
236.681	32.29
237.154	33.42
237.626	33.32
238.099	31.03
238.571	33.66
239.044	33.41
239.516	30.4
239.988	31.22
240.46	32.21
240.933	30.79
241.405	29.96
241.877	29.68
242.349	31.42
242.821	31.79
243.293	28.71
243.765	29.53
244.237	28.76
244.71	29.68
245.181	29.36
245.653	31.72
246.125	28.34
246.597	29.01
247.069	30.26
247.541	28.12
248.013	28.42
248.485	27.67
248.956	28.38
249.428	28.01
249.9	26.19
250.371	27.68
250.843	26.32
251.315	27.62
251.786	28.6
252.258	26.81
252.729	28.47
253.201	26.94
253.672	26.17
254.144	27.33
254.615	26.86
255.086	27.2
255.558	26.3
256.029	25.4
256.5	27.2
256.972	26.03
257.443	26.48
257.914	27.14
258.385	27.65
258.856	26.53
259.327	26.4
259.799	26.69
260.27	26.97
260.741	27.08
261.212	26.94
261.683	25.34
262.154	27
262.624	26.81
263.095	26.33
263.566	26.57
264.037	25.72
264.508	25.55
264.979	26.5
265.449	26.13
265.92	26.34
266.391	26.35
266.861	26.67
267.332	26.75
267.803	25.96
268.273	26.44
268.744	26.46
269.214	26.76
269.685	24.75
270.155	24.82
270.626	25.35
271.096	25.35
271.566	25.85
272.037	26.56
272.507	25.35
272.977	25.92
273.448	25.61
273.918	25.59
274.388	27.15
274.858	26.45
275.328	25.88
275.798	25.88
276.268	25.72
276.738	25.46
277.208	25.24
277.678	26.35
278.148	26.89
278.618	25.38
279.088	26.45
279.558	25.64
280.028	26.36
280.498	26.06
280.968	24.58
281.437	25.49
281.907	24.98
282.377	26.05
282.847	24.83
283.316	25.15
283.786	25.02
284.255	24.86
284.725	24.88
285.194	25.07
285.664	26.5
286.133	25.24
286.603	24.14
287.072	25.47
287.542	26.56
288.011	24
288.48	24.47
288.95	24.75
289.419	25
289.888	25.26
290.357	24.54
290.827	24.92
291.296	24.89
291.765	24.9
292.234	24.64
292.703	23.59
293.172	23.48
293.641	24.35
294.11	24.81
294.579	25.16
295.048	23.44
295.517	24.1
295.986	23.12
296.455	23.89
296.923	23.7
297.392	24.05
297.861	23.46
298.33	24.63
298.798	23.28
299.267	23.42
299.736	23.44
300.204	21.75
300.673	23.16
301.141	22.65
301.61	22.78
302.079	22.4
302.547	23.25
303.015	22.58
303.484	22.82
303.952	21.79
304.421	23.18
304.889	21.33
305.357	22.6
305.825	21.97
306.294	21.49
306.762	21.77
307.23	21.9
307.698	21.7
308.166	21.15
308.634	21.6
309.103	20.28
309.571	21.84
310.039	21.78
310.507	20.87
310.975	20.93
311.442	21.24
311.91	20.16
312.378	21.56
312.846	20.22
313.314	20.62
313.782	20.78
314.249	21.46
314.717	20.45
315.185	20
315.652	20.28
316.12	21.09
316.588	20.48
317.055	20.85
317.523	19.94
317.99	19.65
318.458	19.85
318.925	18.77
319.393	20.25
319.86	19.86
320.328	20.54
320.795	18.92
321.262	20.19
321.73	17.73
322.197	18.98
322.664	19.28
323.131	19.68
323.598	19.3
324.066	20.61
324.533	18.84
325	17.66
325.467	18.87
325.934	17.39
326.401	17.36
326.868	17.48
327.335	17.84
327.802	19.3
328.269	18.04
328.735	18.77
329.202	18.18
329.669	18
330.136	17.74
330.603	18.56
331.069	17.75
331.536	17.94
332.003	17.47
332.469	17.11
332.936	16.53
333.402	16.57
333.869	17.47
334.336	16.82
334.802	16.89
335.268	16.25
335.735	17.63
336.201	16.29
336.668	17.8
337.134	17.36
337.6	15.85
338.067	17.81
338.533	16.23
338.999	16.09
339.465	16.39
339.931	16.78
340.398	16.94
340.864	16.1
341.33	16.94
341.796	16.22
342.262	16.1
342.728	15.64
343.194	15.32
343.66	16.35
344.126	16.01
344.592	14.97
345.057	15.95
345.523	15.47
345.989	15.42
346.455	15.66
346.921	15.95
347.386	15.17
347.852	15.79
348.318	14.77
348.783	15.7
349.249	15.27
349.714	16.57
350.18	16.12
350.645	14.8
351.111	16.32
351.576	15.89
352.042	15.97
352.507	15.39
352.973	15.03
353.438	14.19
353.903	14.69
354.369	14.82
354.834	15.63
355.299	15.87
355.764	15.69
356.229	14.8
356.695	14.27
357.16	14.56
357.625	14.66
358.09	14.33
358.555	15.29
359.02	15.44
359.485	14.11
359.95	14.8
360.415	14.48
360.879	14.25
361.344	13.65
361.809	14.61
362.274	13.85
362.739	14.07
363.203	14.57
363.668	14.93
364.133	13.97
364.597	14.79
365.062	14.26
365.527	13.58
365.991	14.29
366.456	15.49
366.92	14.52
367.385	14.09
367.849	13.48
368.314	13.43
368.778	14.25
369.242	13.29
369.707	13.84
370.171	12.79
370.635	14.08
371.1	13.8
371.564	14.45
372.028	13.05
372.492	13.69
372.956	14.09
373.42	12.87
373.884	13.66
374.348	13.63
374.812	13.08
375.276	14.32
375.74	13.16
376.204	13.79
376.668	13.14
377.132	13.77
377.596	13
378.06	13.31
378.524	13.78
378.987	13.9
379.451	13.12
379.915	13.24
380.378	13.95
380.842	13.21
381.306	13.63
381.769	12.91
382.233	15.13
382.696	13.61
383.16	13.09
383.623	13.45
384.087	13.03
384.55	13.76
385.014	13.97
385.477	13.25
385.94	13.17
386.404	13.82
386.867	13.84
387.33	13.89
387.793	12.76
388.256	13.41
388.72	13.35
389.183	13.36
389.646	13.5
390.109	12.95
390.572	13.29
391.035	13.88
391.498	13.19
391.961	13.28
392.424	13.98
392.887	13.23
393.35	12.84
393.812	13.84
394.275	14.15
394.738	13.8
395.201	13.59
395.664	12.54
396.126	13.48
396.589	13.76
397.052	12.45
397.514	12.75
397.977	13.14
398.439	13.5
398.902	13.18
399.364	13.47
399.827	12.57
400.289	13.44
400.752	12.67
401.214	13.19
401.676	13.27
402.139	12.49
402.601	13.65
403.063	12.86
403.525	12.79
403.988	12.69
404.45	12.34
404.912	12.93
405.374	11.97
405.836	13.35
406.298	13.5
406.76	13.05
407.222	13.49
407.684	13.13
408.146	13.52
408.608	13.31
409.07	12.92
409.532	12.62
409.994	13.54
410.456	13.68
410.917	12.42
411.379	13.48
411.841	13.44
412.303	14.02
412.764	13.01
413.226	12.81
413.687	12.9
414.149	13.33
414.611	13.18
415.072	12.68
415.534	13.22
415.995	12.92
416.457	12.82
416.918	13.38
417.379	13.18
417.841	13.24
418.302	12.87
418.763	12.9
419.225	12.36
419.686	12.77
420.147	12.19
420.608	13.1
421.069	12.84
421.53	12.21
421.991	12.96
422.453	13.29
422.914	12.88
423.375	11.7
423.836	13.35
424.297	12.69
424.757	12.75
425.218	12.31
425.679	12.79
426.14	12.4
426.601	11.19
427.062	12.75
427.522	11.95
427.983	11.92
428.444	12.74
428.904	11.76
429.365	12.33
429.826	12.66
430.286	12.47
430.747	13.16
431.207	12.45
431.668	13.34
432.128	13.03
432.589	12.11
433.049	11.74
433.509	11.04
433.97	12.12
434.43	12.06
434.89	12.45
435.351	12.68
435.811	12.48
436.271	11.59
436.731	12.41
437.191	12.39
437.651	12.31
438.112	13.35
438.572	10.55
439.032	11.09
439.492	13.28
439.952	12
440.412	11.65
440.871	11.62
441.331	12.07
441.791	11.3
442.251	12.76
442.711	12.35
443.171	14
443.63	12.77
444.09	11.21
444.55	12.64
445.009	11.29
445.469	13.21
445.929	12.42
446.388	12.76
446.848	11.37
447.307	11.56
447.767	11.82
448.226	11.95
448.686	11.61
449.145	11.41
449.604	11.85
450.064	12.33
450.523	11.73
450.982	13.33
451.442	11.49
451.901	11.85
452.36	11.86
452.819	11.76
453.278	12.06
453.737	12.31
454.197	12.18
454.656	10.41
455.115	10.23
455.574	11.8
456.033	12.16
456.492	11.48
456.95	12.13
457.409	11.79
457.868	11.68
458.327	10.92
458.786	10.83
459.245	10.19
459.703	11.85
460.162	12.42
460.621	11.99
461.079	10.89
461.538	11.64
461.997	12.06
462.455	10.89
462.914	12.45
463.372	12.32
463.831	10.68
464.289	10.85
464.748	11.22
465.206	12.45
465.664	12.39
466.123	12.33
466.581	10.31
467.039	11.35
467.497	10.68
467.956	12.26
468.414	11.46
468.872	12.97
469.33	12.15
469.788	12.28
470.246	12.11
470.704	12.28
471.162	11.44
471.62	12.03
472.078	11.63
472.536	13.1
472.994	12.2
473.452	10.36
473.91	11.74
474.368	11.54
474.826	12.32
475.283	11.63
475.741	11.15
476.199	12.53
476.656	12.25
477.114	12.59
477.572	11.02
478.029	12.06
478.487	11.28
478.944	11.8
479.402	10.88
479.859	10.81
480.317	10.82
480.774	11.45
481.232	10.62
481.689	11.28
482.146	12.42
482.604	10.36
483.061	10.08
483.518	11.53
483.975	13.72
484.433	9.64
484.89	11.3
485.347	11.34
485.804	11.4
486.261	9.16
486.718	11.43
487.175	11.19
487.632	12.05
488.089	10.95
488.546	11.77
489.003	11.51
489.46	12.41
489.917	11.15
490.373	12.23
490.83	10.55
491.287	10.79
491.744	10.46
492.2	11.29
492.657	10.91
493.114	10.09
493.57	11.12
494.027	10.23
494.484	11.61
494.94	12.25
495.397	11.78
495.853	12.78
496.31	12.02
496.766	10.89
497.222	12.25
497.679	10.65
498.135	10.81
498.591	11.83
499.048	11.03
499.504	10.87
499.96	12.23
500.416	13.02
500.872	12.84
501.329	11.09
501.785	11.4
502.241	11.6
502.697	11.11
503.153	11.22
503.609	10.65
504.065	10.8
504.521	10.99
504.977	11.01
505.432	11.37
505.888	12.14
506.344	10.9
506.8	12.51
507.256	12.34
507.711	12.48
508.167	12.37
508.623	10.66
509.078	10.65
509.534	10.45
509.99	11.96
510.445	11.17
510.901	11.68
511.356	11.56
511.812	11.8
512.267	11.67
512.722	11.95
513.178	10.65
513.633	11.79
514.089	11.1
514.544	11.86
514.999	11.54
515.454	10.93
515.91	11.16
516.365	11.09
516.82	11.46
517.275	12.07
517.73	11.58
518.185	11.67
518.64	11.27
519.095	10.13
519.55	10.78
520.005	11.93
520.46	11.92
520.915	10.81
521.37	10.96
521.825	11.49
522.28	11.6
522.734	11.91
523.189	11.23
523.644	10.99
524.099	12.51
524.553	12.06
525.008	11.26
525.462	12.45
525.917	11.44
526.372	11.35
526.826	12.57
527.281	10.13
527.735	11.59
528.19	10.85
528.644	11.17
529.098	12.32
529.553	11.96
530.007	11.43
530.461	11.16
530.916	11.41
531.37	11.97
531.824	12.01
532.278	11.69
532.732	10.36
533.186	11.24
533.641	11.59
534.095	10.91
534.549	11.74
535.003	10.18
535.457	11.34
535.911	10.47
536.365	11.53
536.818	11.46
537.272	11.4
537.726	11.88
538.18	10.76
538.634	11.65
539.087	11.29
539.541	11.51
539.995	12.12
540.449	12.89
540.902	12.01
541.356	10.68
541.809	9.58
542.263	10.95
542.716	11.02
543.17	11.76
543.623	11.45
544.077	11.8
544.53	10.2
544.984	11.85
545.437	10.62
545.89	10.24
546.344	11.83
546.797	10.22
547.25	12.22
547.703	11.18
548.157	11.14
548.61	10.23
549.063	12.52
549.516	10.15
549.969	11.88
550.422	11.54
550.875	10.89
551.328	10.25
551.781	11.22
552.234	10.37
552.687	11.89
553.14	11.2
553.592	11.25
554.045	11.09
554.498	10.9
554.951	11.3
555.404	11.65
555.856	11.14
556.309	11.21
556.762	9.71
557.214	11.02
557.667	11.13
558.119	11.86
558.572	11.37
559.024	11.89
559.477	11.15
559.929	11.54
560.382	10.93
560.834	12.09
561.286	10.66
561.739	11.66
562.191	12.03
562.643	10.77
563.095	12.64
563.548	10.58
564	11.85
564.452	10.8
564.904	11.38
565.356	12.06
565.808	12.09
566.26	11.7
566.712	10.9
567.164	11.95
567.616	11.54
568.068	11.87
568.52	11.83
568.972	12.4
569.424	11.61
569.876	11.23
570.327	10.53
570.779	12.21
571.231	11.23
571.682	12.53
572.134	10.88
572.586	12.49
573.037	11.27
573.489	11.74
573.941	11.74
574.392	11.18
574.844	10.92
575.295	11.45
575.746	11.17
576.198	11.31
576.649	12.22
577.101	11.34
577.552	11.57
578.003	11.3
578.454	10.99
578.906	11.12
579.357	11.91
579.808	11.92
580.259	11.87
580.71	11.24
581.161	12.73
581.612	11.6
582.064	11.46
582.515	11.52
582.965	11.97
583.416	12.24
583.867	11.52
584.318	11.38
584.769	11.93
585.22	11.7
585.671	11.41
586.122	10.94
586.572	12.28
587.023	11.82
587.474	11.14
587.924	11.27
588.375	11.05
588.826	11.26
589.276	11.23
589.727	11.21
590.177	11.92
590.628	11.74
591.078	11.92
591.529	12.55
591.979	12.23
592.429	11.65
592.88	11.59
593.33	11.89
593.78	12.17
594.231	11.45
594.681	12.02
595.131	10.99
595.581	12.07
596.031	11.38
596.481	11.74
596.932	11.71
597.382	11.9
597.832	11.1
598.282	11.65
598.732	11.49
599.182	11.6
599.632	12.35
600.081	11.43
600.531	11.66
600.981	12.03
601.431	11.62
601.881	12.22
602.33	11.3
602.78	11.5
603.23	11.55
603.679	11.66
604.129	11.54
604.579	11.86
605.028	11.9
605.478	11.56
605.927	11.55
606.377	11.76
606.826	11.73
607.276	11.52
607.725	12.25
608.175	11.53
608.624	11.4
609.073	11.09
609.522	11.8
609.972	12.22
610.421	11.59
610.87	12
611.319	11.24
611.768	11.62
612.218	11.73
612.667	11.57
613.116	12.39
613.565	11.58
614.014	11.99
614.463	11.54
614.912	11.35
615.361	11.53
615.81	11.92
616.258	11.8
616.707	11.79
617.156	11.69
617.605	11.98
618.054	11.49
618.502	12.66
618.951	12.05
619.4	11.79
619.848	12.18
620.297	12.69
620.745	12.05
621.194	11.89
621.642	12.21
622.091	11.8
622.539	11.87
622.988	11.93
623.436	12.18
623.885	12.5
624.333	11.61
624.781	11.94
625.23	11.83
625.678	12.16
626.126	11.65
626.574	12.27
627.022	12.33
627.471	11.17
627.919	11.72
628.367	12
628.815	12.37
629.263	11.63
629.711	12.42
630.159	12.04
630.607	12.06
631.055	12.14
631.503	11.98
631.95	12.2
632.398	11.81
632.846	12.23
633.294	12.23
633.742	11.71
634.189	11.82
634.637	12.18
635.085	12.27
635.532	12.03
635.98	11.76
636.427	12.27
636.875	12.43
637.323	12.05
637.77	12.07
638.217	12.01
638.665	11.97
639.112	11.64
639.56	11.77
640.007	11.72
640.454	12.07
640.902	12.05
641.349	12.14
641.796	11.89
642.243	12.01
642.69	11.92
643.138	12.09
643.585	12.54
644.032	11.87
644.479	11.96
644.926	12.16
645.373	12.55
645.82	11.62
646.267	12.29
646.714	11.95
647.161	12.28
647.607	12.22
648.054	12.17
648.501	11.54
648.948	11.52
649.395	12.32
649.841	11.95
650.288	11.88
650.735	12.29
651.181	11.93
651.628	12.24
652.075	12.53
652.521	11.88
652.968	12.75
653.414	12.36
653.861	12.14
654.307	12.69
654.753	12.15
655.2	12.06
655.646	11.76
656.092	12.09
656.539	12.81
656.985	12.46
657.431	12.38
657.877	12.07
658.324	12.37
658.77	12.57
659.216	12.67
659.662	11.94
660.108	12.16
660.554	12.48
661	11.84
661.446	12.6
661.892	12.26
662.338	11.92
662.784	12.88
663.23	12.06
663.675	12.23
664.121	12.24
664.567	12.32
665.013	13
665.458	12.6
665.904	12.33
666.35	11.88
666.795	12.4
667.241	12.55
667.687	12.5
668.132	12.5
668.578	12.65
669.023	12.53
669.469	12.44
669.914	12.13
670.359	12.25
670.805	12.28
671.25	12.01
671.695	12.25
672.141	12.59
672.586	12.3
673.031	12.66
673.476	11.94
673.922	12.9
674.367	12
674.812	12.69
675.257	12.13
675.702	12.05
676.147	12.15
676.592	12.37
677.037	12.55
677.482	11.82
677.927	12.81
678.372	12.53
678.817	12.83
679.261	12.36
679.706	12.33
680.151	12.72
680.596	12.76
681.04	12.75
681.485	12.46
681.93	12.58
682.374	12.29
682.819	12.23
683.264	12.28
683.708	12.42
684.153	12.34
684.597	13.01
685.042	12.37
685.486	12.2
685.93	12.7
686.375	12.1
686.819	12.35
687.263	12.1
687.708	12.27
688.152	12.61
688.596	12.32
689.04	12.87
689.485	12.93
689.929	12.57
690.373	12.83
690.817	12.87
691.261	12.66
691.705	12.69
692.149	12.4
692.593	12.65
693.037	12.35
693.481	12.43
693.925	12.71
694.369	12.36
694.812	12.8
695.256	12.59
695.7	12.4
696.144	12.78
696.587	12.72
697.031	12.49
697.475	13.01
697.918	12.93
698.362	12.76
698.806	12.9
699.249	12.83
699.693	12.54
700.136	12.99
700.58	12.15
701.023	12.46
701.466	12.53
701.91	12.64
702.353	12.47
702.796	12.4
703.24	12.15
703.683	12.6
704.126	12.52
704.569	12.86
705.013	12.9
705.456	12.44
705.899	12.68
706.342	12.67
706.785	13.29
707.228	12.82
707.671	12.63
708.114	12.89
708.557	12.8
709	12.66
709.443	12.83
709.886	12.56
710.328	12.87
710.771	12.86
711.214	12.52
711.657	12.82
712.099	12.77
712.542	13.16
712.985	12.59
713.427	12.73
713.87	12.38
714.313	13.05
714.755	13.01
715.198	13.02
715.64	13.13
716.083	12.9
716.525	12.95
716.967	12.93
717.41	13.22
717.852	13.18
718.295	12.95
718.737	12.88
719.179	13.06
719.621	12.89
720.063	13.21
720.506	13.09
720.948	12.67
721.39	13.1
721.832	13.84
722.274	13.23
722.716	12.75
723.158	13.13
723.6	12.79
724.042	12.96
724.484	13.22
724.926	13.37
725.368	13.04
725.81	12.78
726.251	13.03
726.693	13.1
727.135	13.24
727.577	13.06
728.018	12.72
728.46	12.85
728.902	13.14
729.343	12.87
729.785	13.11
730.226	13.36
730.668	13.13
731.109	13.06
731.551	12.82
731.992	13.21
732.434	13.17
732.875	13.3
733.316	13.34
733.758	12.9
734.199	13.18
734.64	13.25
735.081	13.02
735.523	12.8
735.964	13.02
736.405	13.52
736.846	13.26
737.287	13.15
737.728	13.04
738.169	13.39
738.61	13.02
739.051	13.54
739.492	12.95
739.933	13.39
740.374	13.24
740.815	13.3
741.256	13.06
741.696	13.15
742.137	13.39
742.578	12.9
743.019	13.5
743.459	13.26
743.9	13.05
744.341	13.42
744.781	13.12
745.222	13.45
745.662	13.16
746.103	13.6
746.543	12.58
746.984	13.28
747.424	13.31
747.865	13.68
748.305	12.93
748.745	13.37
749.186	13.54
749.626	13.49
750.066	12.93
750.506	13.73
750.947	12.89
751.387	13.64
751.827	13.48
752.267	13.04
752.707	13.56
753.147	13.5
753.587	13.51
754.027	13.17
754.467	13.26
754.907	13.57
755.347	13.22
755.787	13.46
756.227	13.59
756.667	13.85
757.107	13.93
757.546	13.74
757.986	13.51
758.426	13.37
758.865	13.68
759.305	13.12
759.745	13.67
760.184	13.6
760.624	13.87
761.063	13.63
761.503	13.42
761.943	13.72
762.382	13.38
762.821	14.13
763.261	13.92
763.7	13.84
764.14	13.65
764.579	13.74
765.018	13.47
765.457	13.64
765.897	14.02
766.336	13.43
766.775	13.85
767.214	13.82
767.653	13.71
768.092	14.23
768.531	13.9
768.97	14
769.409	13.76
769.848	14.1
770.287	13.84
770.726	13.91
771.165	13.83
771.604	13.89
772.043	14.05
772.482	13.98
772.92	13.88
773.359	13.39
773.798	13.97
774.237	13.56
774.675	13.96
775.114	14.01
775.553	13.82
775.991	14.4
776.43	14.28
776.868	14.06
777.307	14.11
777.745	14.39
778.184	14
778.622	14.12
779.06	14.12
779.499	13.74
779.937	13.78
780.375	13.78
780.814	14.21
781.252	13.66
781.69	13.91
782.128	14.24
782.566	14.07
783.004	14
783.443	13.87
783.881	14
784.319	14.33
784.757	14.15
785.195	13.98
785.633	13.66
786.071	14.35
786.508	13.91
786.946	13.66
787.384	14.67
787.822	13.97
788.26	14.16
788.697	14.15
789.135	14.25
789.573	14.24
790.011	14.45
790.448	14.51
790.886	14.22
791.323	14.07
791.761	14.08
792.198	14.33
792.636	14.46
793.073	14.38
793.511	14.14
793.948	14.72
794.386	14.25
794.823	14.34
795.26	14.63
795.698	14.35
796.135	14.72
796.572	14.43
797.009	14.08
797.446	14.61
797.884	14.76
798.321	14.06
798.758	14.22
799.195	14.6
799.632	14.45
800.069	14.86
800.506	14.36
800.943	14.18
801.38	14.43
801.817	14.52
802.254	14.53
802.69	14.82
803.127	14.72
803.564	14.53
804.001	14.79
804.438	14.89
804.874	14.26
805.311	14.35
805.748	14.84
