Data from JCR0006_Black1_Reflection_00002.txt Node
Date: Wed Jul 22 14:10:04 ACST 2020
User: Stacey Dix
Spectrometer: MAYP113282
Scans to average: 1
Trigger mode: 0
Integration Time (sec): 1.000000E-1
Electric dark correction enabled: true
Boxcar width: 0
XAxis mode: Wavelengths
Number of Pixels in Spectrum: 2068
>>>>>Begin Spectral Data<<<<<
198.791	322.22
199.266	433.33
199.74	166.67
200.215	119.05
200.69	-24.54
201.164	4.76
201.639	-17.21
202.114	-4.49
202.588	-11.75
203.063	-11.57
203.537	3.2
204.012	20.55
204.486	7.78
204.961	-7.92
205.435	-18.94
205.909	-1.98
206.384	-1.94
206.858	-16.75
207.332	7.59
207.807	8.66
208.281	13.42
208.755	-7.2
209.229	-11.36
209.703	-17.72
210.177	-16.41
210.651	8.37
211.126	-17.77
211.6	-1.71
212.074	-15.03
212.548	4.72
213.021	4.83
213.495	-1.62
213.969	-5.17
214.443	8.9
214.917	-0.8
215.391	-7.29
215.864	-0.74
216.338	-10.06
216.812	7.22
217.286	4.88
217.759	-3.97
218.233	2.62
218.706	0.94
219.18	-3.18
219.654	6.45
220.127	-1.79
220.6	-2.76
221.074	6.27
221.547	-3.72
222.021	-4
222.494	-4.64
222.967	-4.1
223.441	1.08
223.914	-0.87
224.387	4.14
224.86	5.69
225.334	-0.27
225.807	-1.36
226.28	3.59
226.753	0.75
227.226	0.89
227.699	2.84
228.172	1.8
228.645	1.69
229.118	3.38
229.591	2.71
230.064	1.42
230.537	4.67
231.01	5.22
231.482	3.35
231.955	2.65
232.428	2.21
232.901	1.69
233.373	0.86
233.846	3.48
234.319	2.27
234.791	4.66
235.264	2.43
235.736	2.64
236.209	3.94
236.681	3.41
237.154	3.07
237.626	3.7
238.099	3.21
238.571	1.68
239.044	2.43
239.516	2.88
239.988	2.68
240.46	1.77
240.933	3.53
241.405	2.35
241.877	4.4
242.349	2.57
242.821	2.33
243.293	3.14
243.765	2.62
244.237	1.63
244.71	3.27
245.181	2.48
245.653	2.8
246.125	2.54
246.597	1.11
247.069	2.77
247.541	2.41
248.013	2.59
248.485	2.72
248.956	3.94
249.428	3.07
249.9	4.31
250.371	3.45
250.843	2.97
251.315	2.69
251.786	2.66
252.258	2.65
252.729	3.45
253.201	2.22
253.672	3.03
254.144	2.28
254.615	3.27
255.086	2.17
255.558	2.39
256.029	1.81
256.5	2.27
256.972	2.26
257.443	2.42
257.914	2.52
258.385	2.06
258.856	1.91
259.327	2.13
259.799	2.22
260.27	2.48
260.741	3.01
261.212	2.61
261.683	1.48
262.154	2.43
262.624	2.27
263.095	2.36
263.566	2.23
264.037	2.51
264.508	2.38
264.979	2.29
265.449	3.22
265.92	1.99
266.391	1.98
266.861	2.21
267.332	1.98
267.803	1.92
268.273	1.63
268.744	2.78
269.214	2.32
269.685	2.08
270.155	2.28
270.626	2.01
271.096	2.37
271.566	2.34
272.037	2.38
272.507	2.16
272.977	2.42
273.448	0.92
273.918	2.6
274.388	1.63
274.858	1.72
275.328	2.44
275.798	2.35
276.268	1.97
276.738	2.4
277.208	2.52
277.678	2.07
278.148	2.73
278.618	2.62
279.088	2.48
279.558	1.52
280.028	2.61
280.498	1.68
280.968	1.83
281.437	3.45
281.907	2.88
282.377	2.4
282.847	1.91
283.316	1.88
283.786	1.93
284.255	1.68
284.725	2.61
285.194	2.08
285.664	2.3
286.133	1.81
286.603	1.54
287.072	2.07
287.542	2.13
288.011	2.55
288.48	2.45
288.95	2.64
289.419	2.64
289.888	2.28
290.357	2.25
290.827	2.26
291.296	1.41
291.765	2.79
292.234	1.98
292.703	2.09
293.172	2.68
293.641	1.94
294.11	1.85
294.579	2.12
295.048	1.71
295.517	2.49
295.986	2
296.455	1.85
296.923	2.79
297.392	2.76
297.861	1.78
298.33	1.83
298.798	2.75
299.267	2.05
299.736	1.65
300.204	2.2
300.673	1.96
301.141	2.87
301.61	1.56
302.079	2.14
302.547	2.03
303.015	1.84
303.484	1.36
303.952	2.33
304.421	1.97
304.889	1.45
305.357	2.19
305.825	1.31
306.294	2.45
306.762	1.87
307.23	1.37
307.698	2.09
308.166	2.83
308.634	1.21
309.103	2.24
309.571	1.75
310.039	2.53
310.507	1.57
310.975	1.86
311.442	2.06
311.91	1.61
312.378	3.14
312.846	1.63
313.314	1.37
313.782	1.44
314.249	1.44
314.717	2.05
315.185	2.05
315.652	2.37
316.12	2.17
316.588	1.79
317.055	2.01
317.523	2.33
317.99	1.94
318.458	2.51
318.925	1.42
319.393	1.87
319.86	2.07
320.328	1.81
320.795	1.59
321.262	1.75
321.73	1.77
322.197	1.93
322.664	1.69
323.131	2.07
323.598	1.13
324.066	0.79
324.533	2.39
325	1.06
325.467	1.92
325.934	1.85
326.401	1.47
326.868	1.87
327.335	2.08
327.802	1.41
328.269	2.84
328.735	1.12
329.202	1.67
329.669	1.43
330.136	1.65
330.603	2.04
331.069	2.15
331.536	1.76
332.003	1.84
332.469	1.71
332.936	2.53
333.402	1.79
333.869	2.31
334.336	1.65
334.802	2.02
335.268	2.71
335.735	2.1
336.201	1.89
336.668	1.73
337.134	2.03
337.6	0.69
338.067	2.01
338.533	1.41
338.999	1.4
339.465	1.62
339.931	1.84
340.398	1.68
340.864	0.59
341.33	1.84
341.796	1.67
342.262	2.03
342.728	1.45
343.194	1.65
343.66	2.22
344.126	1.48
344.592	0.73
345.057	1.96
345.523	2.1
345.989	1.14
346.455	1.38
346.921	1.61
347.386	1.31
347.852	1.95
348.318	1.01
348.783	1.12
349.249	0.95
349.714	1.97
350.18	1.1
350.645	0.87
351.111	1.49
351.576	1.24
352.042	1.18
352.507	2.41
352.973	1.67
353.438	1.91
353.903	2.04
354.369	1.83
354.834	1.51
355.299	1.13
355.764	1.33
356.229	1.5
356.695	2.1
357.16	1.97
357.625	1.57
358.09	1.24
358.555	1.72
359.02	1.39
359.485	1.22
359.95	1.81
360.415	2.08
360.879	0.89
361.344	1.02
361.809	1.74
362.274	1.18
362.739	1.7
363.203	0.85
363.668	1.73
364.133	1.38
364.597	1.35
365.062	0.51
365.527	1.59
365.991	1.56
366.456	0.7
366.92	1.55
367.385	2.11
367.849	0.68
368.314	0.3
368.778	2.43
369.242	0.9
369.707	1.67
370.171	1.38
370.635	1.23
371.1	1.9
371.564	1.45
372.028	0.7
372.492	1.9
372.956	0.76
373.42	1.35
373.884	1.38
374.348	1.26
374.812	1.35
375.276	1.9
375.74	1.52
376.204	0.75
376.668	1.26
377.132	1.5
377.596	1.53
378.06	1.34
378.524	1.04
378.987	0.2
379.451	0.61
379.915	1.65
380.378	1.46
380.842	1.13
381.306	1.68
381.769	1.65
382.233	0.96
382.696	2.49
383.16	1.61
383.623	0.51
384.087	1.13
384.55	1.85
385.014	1.2
385.477	1.26
385.94	1.25
386.404	1.29
386.867	2.15
387.33	1
387.793	1.22
388.256	0.92
388.72	1.41
389.183	1.47
389.646	0.89
390.109	0.74
390.572	0.96
391.035	1.56
391.498	1.07
391.961	0.77
392.424	1.4
392.887	1.2
393.35	1.88
393.812	1.01
394.275	0.93
394.738	1.58
395.201	1.1
395.664	0.92
396.126	1.56
396.589	1.59
397.052	1.76
397.514	1.36
397.977	0.67
398.439	1.1
398.902	0.96
399.364	1.39
399.827	1.73
400.289	1.04
400.752	1.3
401.214	1.3
401.676	1.54
402.139	1.12
402.601	1.23
403.063	1.15
403.525	1.29
403.988	0.54
404.45	1.52
404.912	1.33
405.374	1.41
405.836	1.05
406.298	0.87
406.76	1.37
407.222	1.44
407.684	1.3
408.146	2.07
408.608	1.09
409.07	1.42
409.532	1.72
409.994	1.3
410.456	0.54
410.917	1.4
411.379	1.15
411.841	1.5
412.303	1.24
412.764	0.63
413.226	1.86
413.687	0.55
414.149	1.52
414.611	1.38
415.072	1.22
415.534	0.78
415.995	1.34
416.457	1.02
416.918	1.63
417.379	1.41
417.841	1.65
418.302	0.79
418.763	1.12
419.225	2.11
419.686	1.67
420.147	0.93
420.608	1.33
421.069	1.83
421.53	1.21
421.991	1.05
422.453	0.62
422.914	1.44
423.375	1.26
423.836	1.43
424.297	2.51
424.757	0.78
425.218	1.35
425.679	0.84
426.14	1.6
426.601	1.43
427.062	1.26
427.522	1
427.983	1.47
428.444	1.1
428.904	1.65
429.365	1.49
429.826	0.42
430.286	2.29
430.747	1.33
431.207	1.6
431.668	-0.49
432.128	-0.77
432.589	0.84
433.049	0.98
433.509	1.35
433.97	0.52
434.43	1.28
434.89	1.44
435.351	1.03
435.811	2.01
436.271	1.16
436.731	1.5
437.191	2.39
437.651	1.32
438.112	0.25
438.572	0.15
439.032	1.46
439.492	0.69
439.952	0.77
440.412	1.29
440.871	0.32
441.331	2.5
441.791	1.45
442.251	1.38
442.711	1.56
443.171	1.15
443.63	2.95
444.09	1.07
444.55	1.73
445.009	1.53
445.469	-0.16
445.929	0.6
446.388	1.52
446.848	0.97
447.307	2.23
447.767	0.27
448.226	1.04
448.686	1.63
449.145	1.71
449.604	0.85
450.064	1.41
450.523	0.92
450.982	0.32
451.442	1.26
451.901	1.09
452.36	0.56
452.819	1.81
453.278	0.23
453.737	0.63
454.197	1.44
454.656	0.91
455.115	0.53
455.574	1.33
456.033	1.4
456.492	1.44
456.95	1.04
457.409	0.29
457.868	0.96
458.327	0.5
458.786	0.29
459.245	0.6
459.703	0.88
460.162	1.36
460.621	1.05
461.079	1.28
461.538	0.9
461.997	0.32
462.455	1.33
462.914	1.3
463.372	1.8
463.831	2.34
464.289	0.97
464.748	0.86
465.206	1.41
465.664	1.53
466.123	0.55
466.581	1.78
467.039	0.71
467.497	0.16
467.956	1.19
468.414	1.23
468.872	1.72
469.33	1.06
469.788	0.59
470.246	1.89
470.704	-0.13
471.162	1.78
471.62	1.05
472.078	1.34
472.536	-0.07
472.994	0.23
473.452	0.42
473.91	0.71
474.368	0.78
474.826	1.14
475.283	2.15
475.741	-0.81
476.199	1.99
476.656	1.39
477.114	0.3
477.572	-0.19
478.029	0.43
478.487	2.24
478.944	0.78
479.402	1.61
479.859	2.74
480.317	-0.19
480.774	1.75
481.232	0.5
481.689	1.66
482.146	1.04
482.604	-0.31
483.061	1.65
483.518	0.69
483.975	1.49
484.433	1.69
484.89	1.61
485.347	1.25
485.804	1.62
486.261	1.63
486.718	-0.01
487.175	1.6
487.632	0.44
488.089	0.72
488.546	0.24
489.003	1.43
489.46	1.52
489.917	-0.27
490.373	-1.16
490.83	1.25
491.287	2.26
491.744	-0.01
492.2	1.57
492.657	1.18
493.114	-0.2
493.57	0.3
494.027	0.74
494.484	1.23
494.94	0.05
495.397	0.74
495.853	1.31
496.31	0.92
496.766	1.69
497.222	2.05
497.679	1.94
498.135	0.99
498.591	0.86
499.048	0.65
499.504	0.47
499.96	1.18
500.416	2.36
500.872	1.46
501.329	0.23
501.785	-0.36
502.241	0.62
502.697	1.06
503.153	1.11
503.609	0.05
504.065	0.22
504.521	1.12
504.977	1.42
505.432	1.18
505.888	1.19
506.344	0.51
506.8	1.42
507.256	0.67
507.711	0.56
508.167	0.59
508.623	1.18
509.078	0.9
509.534	0.47
509.99	1.12
510.445	0.57
510.901	1.28
511.356	0.55
511.812	1.61
512.267	0.32
512.722	0.85
513.178	0.91
513.633	0.71
514.089	1.22
514.544	1.26
514.999	1.83
515.454	-0.31
515.91	0.85
516.365	0.64
516.82	1.59
517.275	0.78
517.73	1.02
518.185	1.38
518.64	1.06
519.095	0.99
519.55	0.98
520.005	0.8
520.46	1.13
520.915	1.5
521.37	1.73
521.825	1.77
522.28	1
522.734	1.75
523.189	2.1
523.644	-0.3
524.099	1.33
524.553	0.9
525.008	0.92
525.462	0.55
525.917	1.62
526.372	1.5
526.826	0.94
527.281	1.77
527.735	1.57
528.19	0.17
528.644	0.75
529.098	0.86
529.553	1.2
530.007	0.98
530.461	0.8
530.916	1.72
531.37	2.55
531.824	1.11
532.278	0.8
532.732	2.34
533.186	1.82
533.641	1.39
534.095	1.53
534.549	1.66
535.003	0.62
535.457	1.3
535.911	1.63
536.365	1.07
536.818	0.48
537.272	1.24
537.726	0.71
538.18	1.01
538.634	0.7
539.087	-0.11
539.541	2.28
539.995	0.41
540.449	1.96
540.902	0.92
541.356	2.56
541.809	0.28
542.263	1.42
542.716	1.49
543.17	-0.06
543.623	1.76
544.077	1.72
544.53	0.18
544.984	2.38
545.437	0.6
545.89	0.22
546.344	1
546.797	1.76
547.25	1.22
547.703	0.82
548.157	1.13
548.61	0.71
549.063	0.45
549.516	1.49
549.969	0.52
550.422	0.43
550.875	0.38
551.328	1.56
551.781	0.74
552.234	0.96
552.687	1.42
553.14	0.33
553.592	1.6
554.045	1.1
554.498	0.71
554.951	0.71
555.404	1.07
555.856	1.78
556.309	0.97
556.762	1.11
557.214	1.1
557.667	1.1
558.119	1.67
558.572	1.32
559.024	1.67
559.477	1.41
559.929	0.54
560.382	0.24
560.834	0.6
561.286	1.12
561.739	1.09
562.191	0.41
562.643	0.68
563.095	1.96
563.548	0.99
564	1.61
564.452	0.67
564.904	1.87
565.356	0.57
565.808	1.15
566.26	1.11
566.712	0.88
567.164	1.37
567.616	1.36
568.068	1.18
568.52	1.11
568.972	0.95
569.424	1.34
569.876	1.53
570.327	1.49
570.779	1.73
571.231	1.09
571.682	1.35
572.134	0.67
572.586	1.76
573.037	1.46
573.489	1.11
573.941	1.07
574.392	1.43
574.844	1.16
575.295	1.46
575.746	1.08
576.198	1.44
576.649	1.52
577.101	0.89
577.552	0.78
578.003	1.02
578.454	0.95
578.906	1.38
579.357	1.1
579.808	1.23
580.259	1.67
580.71	0.79
581.161	1.34
581.612	1.39
582.064	0.56
582.515	0.91
582.965	0.68
583.416	1.2
583.867	1.84
584.318	0.85
584.769	1.73
585.22	0.76
585.671	0.25
586.122	1.1
586.572	1.22
587.023	1.34
587.474	1.41
587.924	1.71
588.375	1.28
588.826	1.07
589.276	1.04
589.727	0.63
590.177	0.6
590.628	0.45
591.078	1.52
591.529	0.8
591.979	1.01
592.429	1.03
592.88	1.26
593.33	0.74
593.78	1.11
594.231	1.25
594.681	0.92
595.131	1
595.581	0.43
596.031	1.06
596.481	1.14
596.932	1.44
597.382	2.38
597.832	1.31
598.282	1.09
598.732	0.98
599.182	1.09
599.632	1.63
600.081	1.12
600.531	1.18
600.981	0.69
601.431	1.05
601.881	1.75
602.33	0.69
602.78	1.18
603.23	1.23
603.679	1.01
604.129	1.03
604.579	1.09
605.028	1.45
605.478	1.57
605.927	1.17
606.377	1.35
606.826	1.25
607.276	1.23
607.725	1.45
608.175	1.56
608.624	0.89
609.073	0.91
609.522	1.35
609.972	1.53
610.421	1.46
610.87	0.91
611.319	1.12
611.768	1.96
612.218	1.23
612.667	0.98
613.116	1.64
613.565	0.93
614.014	0.99
614.463	1.11
614.912	0.92
615.361	0.93
615.81	1.41
616.258	1.75
616.707	1.27
617.156	1.6
617.605	1.37
618.054	1.03
618.502	1.57
618.951	1.62
619.4	0.94
619.848	1.59
620.297	1.2
620.745	1.76
621.194	1.16
621.642	1.24
622.091	1.19
622.539	1.58
622.988	1.03
623.436	1.18
623.885	0.9
624.333	1.44
624.781	0.62
625.23	1.46
625.678	1.14
626.126	1.64
626.574	1.14
627.022	1.34
627.471	1.5
627.919	1.41
628.367	1.5
628.815	1.6
629.263	1.2
629.711	1.19
630.159	1.2
630.607	1.65
631.055	1.66
631.503	0.83
631.95	1.31
632.398	1.09
632.846	0.73
633.294	1.75
633.742	1.43
634.189	1.52
634.637	1.45
635.085	1.26
635.532	0.96
635.98	1.27
636.427	1.18
636.875	1.41
637.323	1.46
637.77	1.43
638.217	1.07
638.665	1.27
639.112	1.21
639.56	1.46
640.007	1.04
640.454	1.46
640.902	1.21
641.349	1.59
641.796	1.5
642.243	1.25
642.69	1.23
643.138	1.15
643.585	1.49
644.032	1.52
644.479	0.98
644.926	1.04
645.373	1.45
645.82	1.02
646.267	1.58
646.714	1.37
647.161	1.52
647.607	1.25
648.054	1.03
648.501	1.25
648.948	1.17
649.395	1.35
649.841	1.34
650.288	1.5
650.735	1.41
651.181	1.42
651.628	1.09
652.075	1.59
652.521	1.33
652.968	1.12
653.414	1.34
653.861	1.05
654.307	1.17
654.753	1.32
655.2	1.6
655.646	1.09
656.092	1.26
656.539	1.1
656.985	1.31
657.431	1.2
657.877	1.18
658.324	1.24
658.77	1.05
659.216	1.18
659.662	1.12
660.108	1.28
660.554	1.5
661	1.13
661.446	1.75
661.892	1.31
662.338	1.08
662.784	1.36
663.23	1.3
663.675	1.23
664.121	1.93
664.567	1.26
665.013	1.09
665.458	0.97
665.904	1.58
666.35	1.23
666.795	1.06
667.241	1.29
667.687	1.18
668.132	1.51
668.578	0.95
669.023	1.52
669.469	1.41
669.914	1.27
670.359	1.54
670.805	1.26
671.25	1.11
671.695	1.28
672.141	1.31
672.586	1.05
673.031	1.07
673.476	1.67
673.922	1.39
674.367	1.12
674.812	1.08
675.257	1.64
675.702	1.43
676.147	1.32
676.592	1.5
677.037	1.42
677.482	1.23
677.927	1.43
678.372	1.32
678.817	1.35
679.261	1.21
679.706	1.47
680.151	1.83
680.596	1.18
681.04	1.24
681.485	1.1
681.93	1.33
682.374	1.44
682.819	1.16
683.264	1.27
683.708	1.39
684.153	1.66
684.597	1.06
685.042	1.58
685.486	1.11
685.93	1.53
686.375	1.21
686.819	1.66
687.263	1.31
687.708	0.93
688.152	1.26
688.596	1.34
689.04	1.43
689.485	1.44
689.929	1.43
690.373	1.52
690.817	1.84
691.261	1.39
691.705	1.32
692.149	1.34
692.593	1.54
693.037	1.27
693.481	1.32
693.925	1.41
694.369	1.56
694.812	1.63
695.256	1.52
695.7	1.36
696.144	1.44
696.587	1.18
697.031	1.44
697.475	1.39
697.918	1.26
698.362	1.43
698.806	1.72
699.249	1.43
699.693	1.23
700.136	1.43
700.58	1.61
701.023	1.13
701.466	1.57
701.91	1.2
702.353	1.47
702.796	1.5
703.24	1.21
703.683	1.4
704.126	1.62
704.569	1.37
705.013	1.42
705.456	1.21
705.899	1.5
706.342	1.31
706.785	1.25
707.228	1.54
707.671	1.35
708.114	1.52
708.557	1.28
709	1.27
709.443	1.74
709.886	1.6
710.328	1.54
710.771	1.63
711.214	1.51
711.657	1.31
712.099	1.3
712.542	1.34
712.985	1.55
713.427	1.43
713.87	1.69
714.313	1.24
714.755	1.33
715.198	1.25
715.64	1.62
716.083	1.6
716.525	1.45
716.967	1.74
717.41	1.59
717.852	1.37
718.295	1.2
718.737	1.59
719.179	1.53
719.621	1.34
720.063	1.31
720.506	1.72
720.948	1.41
721.39	1.6
721.832	1.57
722.274	1.46
722.716	1.35
723.158	1.41
723.6	1.62
724.042	1.43
724.484	1.41
724.926	1.75
725.368	1.4
725.81	1.37
726.251	1.22
726.693	1.38
727.135	1.39
727.577	1.45
728.018	1.42
728.46	1.28
728.902	1.4
729.343	1.62
729.785	1.49
730.226	0.92
730.668	1.51
731.109	1.69
731.551	1.41
731.992	1.55
732.434	1.7
732.875	1.73
733.316	1.2
733.758	1.4
734.199	1.32
734.64	1.42
735.081	1.39
735.523	1.32
735.964	1.26
736.405	1.28
736.846	1.52
737.287	1.35
737.728	1.25
738.169	1.45
738.61	1.23
739.051	1.45
739.492	1.75
739.933	1.55
740.374	1.42
740.815	1.49
741.256	1.13
741.696	1.32
742.137	1.29
742.578	1.47
743.019	1.45
743.459	1.26
743.9	1.24
744.341	1.47
744.781	1.49
745.222	1.52
745.662	1.3
746.103	1.33
746.543	1.29
746.984	1.59
747.424	1.28
747.865	1.54
748.305	1.38
748.745	1.64
749.186	1.41
749.626	1.45
750.066	1.59
750.506	1.05
750.947	1.59
751.387	1.3
751.827	1.66
752.267	1.22
752.707	1.61
753.147	1.34
753.587	1.21
754.027	1.35
754.467	1.48
754.907	1.22
755.347	1.29
755.787	1.01
756.227	1.66
756.667	1.79
757.107	1.56
757.546	1.56
757.986	1.71
758.426	1.49
758.865	1.57
759.305	1.3
759.745	1.83
760.184	1.63
760.624	1.57
761.063	1.51
761.503	1.33
761.943	1.53
762.382	1.77
762.821	1.51
763.261	1.84
763.7	1.66
764.14	1.23
764.579	1.62
765.018	1.52
765.457	1.3
765.897	1.4
766.336	1.71
766.775	1.75
767.214	1.49
767.653	1.37
768.092	1.56
768.531	1.61
768.97	1.27
769.409	1.49
769.848	1.62
770.287	1.92
770.726	1.49
771.165	1.65
771.604	1.57
772.043	1.38
772.482	1.82
772.92	1.53
773.359	1.63
773.798	1.55
774.237	1.53
774.675	1.56
775.114	1.41
775.553	1.77
775.991	1.51
776.43	1.69
776.868	1.43
777.307	1.31
777.745	1.56
778.184	1.59
778.622	1.53
779.06	1.78
779.499	1.79
779.937	1.76
780.375	1.67
780.814	1.63
781.252	1.58
781.69	1.68
782.128	1.64
782.566	1.45
783.004	1.36
783.443	1.82
783.881	1.74
784.319	1.68
784.757	1.6
785.195	1.54
785.633	1.62
786.071	1.55
786.508	1.53
786.946	1.55
787.384	1.46
787.822	1.69
788.26	1.76
788.697	1.8
789.135	1.32
789.573	1.37
790.011	1.67
790.448	1.5
790.886	1.51
791.323	1.7
791.761	1.65
792.198	1.47
792.636	1.68
793.073	1.6
793.511	1.73
793.948	1.66
794.386	1.43
794.823	1.54
795.26	1.61
795.698	1.7
796.135	1.84
796.572	1.61
797.009	1.6
797.446	1.69
797.884	1.86
798.321	1.56
798.758	1.8
799.195	1.51
799.632	1.55
800.069	1.7
800.506	1.63
800.943	1.55
801.38	1.77
801.817	1.85
802.254	1.62
802.69	1.69
803.127	1.55
803.564	1.63
804.001	1.79
804.438	1.76
804.874	1.65
805.311	1.62
805.748	1.53
806.184	1.51
806.621	1.46
807.057	1.77
807.494	1.64
807.93	1.95
808.367	1.64
808.803	1.67
809.24	1.74
809.676	1.89
810.112	1.66
810.549	1.79
810.985	1.51
811.421	1.64
811.857	1.59
812.294	1.69
812.73	1.78
813.166	1.41
813.602	1.72
814.038	1.56
814.474	1.78
814.91	1.42
815.346	1.83
815.782	1.64
816.218	1.83
816.654	1.6
817.09	1.74
817.526	1.69
817.962	1.68
818.398	1.77
818.833	1.81
819.269	1.85
819.705	1.8
820.141	1.9
820.576	1.76
821.012	1.79
821.447	1.59
821.883	1.64
822.319	1.72
822.754	1.7
823.19	1.78
823.625	1.65
824.061	1.84
824.496	1.73
824.931	1.83
825.367	1.85
825.802	1.84
826.237	1.88
826.673	1.76
827.108	1.71
827.543	1.74
827.978	1.75
828.413	1.76
828.849	1.84
829.284	1.79
829.719	1.65
830.154	1.79
830.589	1.9
831.024	1.74
831.459	1.82
831.894	1.76
832.329	1.87
832.763	1.79
833.198	1.88
833.633	1.88
834.068	1.72
834.503	1.92
834.937	1.82
835.372	1.9
835.807	1.91
836.241	1.72
836.676	1.76
837.111	1.77
837.545	1.81
837.98	1.83
838.414	1.84
838.849	1.77
839.283	1.95
839.717	1.72
840.152	1.73
840.586	1.96
841.021	1.85
841.455	1.68
841.889	1.75
842.323	2.1
842.758	1.67
843.192	1.82
843.626	1.99
844.06	1.78
844.494	1.92
