Data from JCR0009_YellowVentral_Reflection_00003.txt Node
Date: Wed Jul 22 16:43:31 ACST 2020
User: Stacey Dix
Spectrometer: MAYP113282
Scans to average: 1
Trigger mode: 0
Integration Time (sec): 1.000000E-1
Electric dark correction enabled: true
Boxcar width: 0
XAxis mode: Wavelengths
Number of Pixels in Spectrum: 2068
>>>>>Begin Spectral Data<<<<<
198.791	-572
199.266	226.32
199.74	126.09
200.215	124
200.69	154.19
201.164	113.69
201.639	107.93
202.114	96.14
202.588	79.18
203.063	132.68
203.537	87.46
204.012	75.32
204.486	72.24
204.961	82.39
205.435	94.01
205.909	92.04
206.384	126.18
206.858	106.41
207.332	78.63
207.807	122.07
208.281	78.03
208.755	83.78
209.229	134.36
209.703	60.51
210.177	88.42
210.651	78
211.126	82.71
211.6	51.39
212.074	53.32
212.548	64.71
213.021	70.87
213.495	95.07
213.969	78.27
214.443	104.24
214.917	97.43
215.391	80.45
215.864	80.73
216.338	75.27
216.812	79.08
217.286	60.54
217.759	66.3
218.233	78.53
218.706	68.63
219.18	66.61
219.654	61.41
220.127	83.04
220.6	79.13
221.074	62.23
221.547	61.55
222.021	52.25
222.494	55.94
222.967	67.77
223.441	55.7
223.914	70.9
224.387	40.6
224.86	45.93
225.334	51.5
225.807	54.75
226.28	50.88
226.753	47.1
227.226	56.87
227.699	32.9
228.172	42
228.645	41.44
229.118	38.41
229.591	47.78
230.064	39.26
230.537	38.52
231.01	35.21
231.482	34.82
231.955	39.71
232.428	37.61
232.901	34.97
233.373	39.78
233.846	28.52
234.319	36.55
234.791	37.44
235.264	35.49
235.736	30.3
236.209	31.76
236.681	34.82
237.154	33.91
237.626	30.08
238.099	31.98
238.571	29.79
239.044	27.68
239.516	30.17
239.988	29.89
240.46	28.64
240.933	27.1
241.405	30.39
241.877	26.06
242.349	28.29
242.821	26.92
243.293	27.78
243.765	24.96
244.237	29.97
244.71	26.8
245.181	27.82
245.653	28.24
246.125	27.58
246.597	28.48
247.069	24.96
247.541	25.59
248.013	26.26
248.485	25.64
248.956	27.09
249.428	21.89
249.9	24.64
250.371	22.63
250.843	25.27
251.315	26.21
251.786	21.75
252.258	22.73
252.729	21.62
253.201	23.15
253.672	23.93
254.144	23.27
254.615	21.83
255.086	22.24
255.558	21.65
256.029	22.38
256.5	23.31
256.972	21.44
257.443	22.59
257.914	22.96
258.385	22.93
258.856	22.65
259.327	21.93
259.799	21.84
260.27	21.57
260.741	22.04
261.212	21.62
261.683	21.84
262.154	21.3
262.624	20.13
263.095	21
263.566	22.43
264.037	21.01
264.508	21.86
264.979	20.84
265.449	21.97
265.92	21.98
266.391	20.57
266.861	19.55
267.332	21.25
267.803	21.15
268.273	21.27
268.744	20.58
269.214	21.78
269.685	20.13
270.155	21.5
270.626	20.08
271.096	21.69
271.566	22.13
272.037	20.16
272.507	22.49
272.977	20.65
273.448	20.63
273.918	22.49
274.388	19.91
274.858	20.5
275.328	21.86
275.798	19.25
276.268	21.83
276.738	21.73
277.208	20.61
277.678	19.34
278.148	22.31
278.618	20.05
279.088	19.91
279.558	21.61
280.028	20.79
280.498	19.48
280.968	19.8
281.437	20.72
281.907	18.24
282.377	20.55
282.847	20.86
283.316	20.45
283.786	18.58
284.255	20.35
284.725	18.81
285.194	18.71
285.664	20.16
286.133	20.43
286.603	19.76
287.072	20.08
287.542	18.4
288.011	20.04
288.48	19.48
288.95	18.92
289.419	19.41
289.888	20.82
290.357	18.69
290.827	17.97
291.296	17.92
291.765	19.13
292.234	19.64
292.703	19.38
293.172	19.91
293.641	20.05
294.11	18.57
294.579	19.61
295.048	20.97
295.517	20.97
295.986	20.5
296.455	19.98
296.923	20.35
297.392	20.3
297.861	20.76
298.33	20.27
298.798	18.35
299.267	21.57
299.736	19.68
300.204	20.39
300.673	21.45
301.141	19.18
301.61	20.49
302.079	22.55
302.547	19.38
303.015	20.73
303.484	19.83
303.952	19.7
304.421	22.08
304.889	18.35
305.357	21.67
305.825	21.59
306.294	21.64
306.762	21.25
307.23	19.64
307.698	20.5
308.166	20.85
308.634	20.72
309.103	21.04
309.571	22.81
310.039	20.32
310.507	21.35
310.975	20.37
311.442	21.92
311.91	20.68
312.378	21.52
312.846	19.47
313.314	20.84
313.782	21.26
314.249	20.51
314.717	20.27
315.185	21.04
315.652	19.69
316.12	21.77
316.588	21.54
317.055	20.08
317.523	22.08
317.99	21.32
318.458	21.65
318.925	20.63
319.393	20.45
319.86	21.16
320.328	21.93
320.795	20.99
321.262	21.1
321.73	22.05
322.197	22.54
322.664	20.99
323.131	20.46
323.598	22.25
324.066	21.6
324.533	22
325	21.66
325.467	21.61
325.934	22.22
326.401	21.79
326.868	22.46
327.335	22.36
327.802	22.54
328.269	23.4
328.735	23.64
329.202	23.36
329.669	24.29
330.136	24.91
330.603	24.5
331.069	24.27
331.536	23.32
332.003	22.98
332.469	25.28
332.936	24.79
333.402	24.1
333.869	24.09
334.336	25.46
334.802	24.72
335.268	23.47
335.735	23.43
336.201	26.1
336.668	25.46
337.134	25.63
337.6	26.91
338.067	25.77
338.533	23.71
338.999	24.31
339.465	25.35
339.931	24.03
340.398	25.33
340.864	25.85
341.33	22.53
341.796	25.97
342.262	25.3
342.728	24.76
343.194	23.83
343.66	25.77
344.126	23.88
344.592	24.51
345.057	25.81
345.523	24.57
345.989	25.91
346.455	23.83
346.921	26.26
347.386	24.48
347.852	24.93
348.318	25.74
348.783	24.01
349.249	21.96
349.714	24.48
350.18	24.9
350.645	25.79
351.111	24.73
351.576	23.13
352.042	25.19
352.507	21.81
352.973	23.58
353.438	24.16
353.903	24.44
354.369	23.28
354.834	24.25
355.299	24.92
355.764	25.22
356.229	23.59
356.695	24.6
357.16	24.42
357.625	23.1
358.09	23.74
358.555	24.37
359.02	24.74
359.485	23.86
359.95	24.38
360.415	24.88
360.879	27.18
361.344	23.57
361.809	26.96
362.274	23.86
362.739	22.39
363.203	23.49
363.668	25.73
364.133	22.45
364.597	24.87
365.062	24.57
365.527	24.98
365.991	23.57
366.456	25.69
366.92	23.79
367.385	23.55
367.849	23.93
368.314	24.75
368.778	23.51
369.242	24.98
369.707	24.16
370.171	23.51
370.635	24.34
371.1	23.2
371.564	23.63
372.028	23.95
372.492	23.79
372.956	21.86
373.42	23.96
373.884	23.18
374.348	23.03
374.812	23.19
375.276	22.64
375.74	23.86
376.204	23.21
376.668	24.19
377.132	22.4
377.596	24.54
378.06	23.98
378.524	23.95
378.987	23.1
379.451	22.02
379.915	22.77
380.378	22.54
380.842	23.19
381.306	24.11
381.769	22.97
382.233	24.59
382.696	21.78
383.16	25.25
383.623	21.23
384.087	24.04
384.55	24.03
385.014	20.96
385.477	22.2
385.94	26.23
386.404	22.54
386.867	22.48
387.33	22.58
387.793	22.92
388.256	21.76
388.72	21.93
389.183	21.22
389.646	22.06
390.109	22.09
390.572	23.85
391.035	21.87
391.498	20.89
391.961	23.31
392.424	21.81
392.887	22.08
393.35	20.86
393.812	22.83
394.275	21.18
394.738	21.87
395.201	21.82
395.664	22.28
396.126	21.66
396.589	23.58
397.052	21.78
397.514	21.92
397.977	22.19
398.439	21.26
398.902	22.59
399.364	21.46
399.827	20.31
400.289	21.23
400.752	21.53
401.214	22.05
401.676	21.13
402.139	20.95
402.601	20.14
403.063	21.81
403.525	23.13
403.988	23.07
404.45	20.35
404.912	21.85
405.374	20.07
405.836	21.17
406.298	21.36
406.76	21.5
407.222	22.21
407.684	20.13
408.146	20.46
408.608	19.34
409.07	21.98
409.532	20.61
409.994	20.34
410.456	22.28
410.917	20.36
411.379	22.37
411.841	20.79
412.303	21.06
412.764	21.31
413.226	18.5
413.687	21.13
414.149	21.99
414.611	19.24
415.072	20
415.534	21.28
415.995	20.54
416.457	20.09
416.918	21.39
417.379	19.33
417.841	21.87
418.302	23.59
418.763	21.46
419.225	20.75
419.686	20.3
420.147	20.43
420.608	21.33
421.069	21.22
421.53	18.6
421.991	19.75
422.453	19.66
422.914	20.69
423.375	21.57
423.836	21.12
424.297	22.47
424.757	20.9
425.218	22.03
425.679	22.16
426.14	23.07
426.601	21.3
427.062	22.56
427.522	22.86
427.983	21.97
428.444	22.05
428.904	23.51
429.365	21.15
429.826	21.72
430.286	23.03
430.747	24.61
431.207	23.36
431.668	22
432.128	23.54
432.589	23.78
433.049	23.4
433.509	21.89
433.97	21.31
434.43	23.92
434.89	26.29
435.351	22.92
435.811	21.62
436.271	22.42
436.731	24.19
437.191	22.22
437.651	23.51
438.112	23.41
438.572	21.58
439.032	23.05
439.492	24.27
439.952	22.99
440.412	22.08
440.871	25.38
441.331	24.11
441.791	22.16
442.251	21.66
442.711	23.03
443.171	22.64
443.63	23.52
444.09	22.61
444.55	23.31
445.009	24.09
445.469	21.82
445.929	22.62
446.388	23.41
446.848	24.44
447.307	22.09
447.767	22.76
448.226	23.9
448.686	22.52
449.145	23.86
449.604	22.14
450.064	22.84
450.523	22.36
450.982	24.39
451.442	21.71
451.901	24.75
452.36	24.37
452.819	21.7
453.278	22.42
453.737	22.66
454.197	22.92
454.656	23.43
455.115	24.8
455.574	24.81
456.033	24.17
456.492	23.43
456.95	22.96
457.409	25.76
457.868	23.16
458.327	21.12
458.786	25.99
459.245	23.07
459.703	22.38
460.162	24.92
460.621	23.8
461.079	22.39
461.538	23.71
461.997	24.23
462.455	23.12
462.914	25.06
463.372	24.45
463.831	23.81
464.289	26
464.748	24.92
465.206	24.94
465.664	25.51
466.123	25.36
466.581	25.76
467.039	23.6
467.497	26.28
467.956	23.57
468.414	26.29
468.872	26.99
469.33	22.4
469.788	23.01
470.246	26.5
470.704	25.72
471.162	24.15
471.62	23.61
472.078	27.76
472.536	24.81
472.994	26.22
473.452	24.94
473.91	27.98
474.368	28.78
474.826	27.6
475.283	28.51
475.741	26.69
476.199	25.58
476.656	28.94
477.114	25.43
477.572	25.85
478.029	28.1
478.487	27.95
478.944	27.7
479.402	27.48
479.859	28.3
480.317	27.5
480.774	27.33
481.232	25.75
481.689	29.66
482.146	28.87
482.604	28.06
483.061	26.65
483.518	31.88
483.975	29.56
484.433	27.85
484.89	30.79
485.347	27.73
485.804	30.77
486.261	28.92
486.718	27.87
487.175	28.87
487.632	31.14
488.089	29.46
488.546	31.16
489.003	28.06
489.46	34.75
489.917	29.39
490.373	32.73
490.83	32.35
491.287	33.18
491.744	32.46
492.2	33.84
492.657	30.36
493.114	27.58
493.57	29.91
494.027	31.67
494.484	34.12
494.94	31.21
495.397	30.61
495.853	34.73
496.31	30.48
496.766	33.18
497.222	33.62
497.679	35.16
498.135	33.39
498.591	33.75
499.048	31.54
499.504	33.12
499.96	34.54
500.416	29.2
500.872	34.98
501.329	29.22
501.785	34.56
502.241	31.5
502.697	29.57
503.153	33.69
503.609	32.26
504.065	34.48
504.521	31.78
504.977	30.01
505.432	33.12
505.888	32.61
506.344	34.6
506.8	30.53
507.256	31.61
507.711	31
508.167	33.46
508.623	34.44
509.078	32.56
509.534	33.48
509.99	34.03
510.445	31.34
510.901	32.15
511.356	33.17
511.812	35.22
512.267	33.78
512.722	34.07
513.178	33.69
513.633	31.72
514.089	34.77
514.544	32.84
514.999	31.93
515.454	34.82
515.91	33.53
516.365	33.05
516.82	31.22
517.275	34.77
517.73	32.91
518.185	32.48
518.64	34.4
519.095	32.06
519.55	34.01
520.005	32.67
520.46	35.03
520.915	33.73
521.37	32.48
521.825	32.49
522.28	33.74
522.734	34.24
523.189	33.11
523.644	35.26
524.099	35.08
524.553	33.44
525.008	34.16
525.462	36.71
525.917	35.98
526.372	34.94
526.826	37.57
527.281	34.39
527.735	34.73
528.19	34.31
528.644	35.38
529.098	32.81
529.553	36.34
530.007	35.23
530.461	37.91
530.916	39.44
531.37	35.18
531.824	35.99
532.278	36.16
532.732	37.78
533.186	32.15
533.641	36.81
534.095	38.65
534.549	34.98
535.003	34.03
535.457	34.18
535.911	37.96
536.365	35.68
536.818	36.14
537.272	36.09
537.726	36.59
538.18	37.78
538.634	36.1
539.087	36.89
539.541	37.97
539.995	37.93
540.449	35.46
540.902	34.73
541.356	37.35
541.809	37.23
542.263	35.24
542.716	37.54
543.17	38.36
543.623	37.02
544.077	37.63
544.53	36.11
544.984	37.79
545.437	35.29
545.89	37.85
546.344	37.69
546.797	37.19
547.25	37.95
547.703	37.65
548.157	38.48
548.61	37.38
549.063	39.48
549.516	38.74
549.969	37.83
550.422	39.16
550.875	37.58
551.328	38.95
551.781	37.62
552.234	38.64
552.687	40.2
553.14	39.6
553.592	37.41
554.045	39.79
554.498	39.4
554.951	40.05
555.404	39.8
555.856	39.53
556.309	38.93
556.762	40.14
557.214	41.05
557.667	39.14
558.119	40.79
558.572	37.17
559.024	40.59
559.477	37.93
559.929	40.8
560.382	40.65
560.834	40.23
561.286	41.25
561.739	39.52
562.191	40.14
562.643	39.65
563.095	41.49
563.548	39.34
564	39.99
564.452	39.04
564.904	41.01
565.356	42.96
565.808	39.47
566.26	39.67
566.712	41.58
567.164	42.21
567.616	37.46
568.068	40.48
568.52	40.54
568.972	39.06
569.424	39.14
569.876	38.69
570.327	40.24
570.779	39.64
571.231	39.3
571.682	40.15
572.134	40.46
572.586	39.31
573.037	40.03
573.489	41.06
573.941	37.58
574.392	39.11
574.844	38.55
575.295	36.65
575.746	38.54
576.198	39.76
576.649	38.24
577.101	38.3
577.552	39.93
578.003	40.5
578.454	38.19
578.906	38.67
579.357	38.2
579.808	38.21
580.259	38.47
580.71	37.39
581.161	38.9
581.612	39.49
582.064	39.41
582.515	40.4
582.965	36.22
583.416	40.14
583.867	40.24
584.318	39.43
584.769	39.88
585.22	40.88
585.671	41.55
586.122	40.81
586.572	42.23
587.023	41.59
587.474	41.99
587.924	41.08
588.375	42.3
588.826	41.74
589.276	40.17
589.727	42.71
590.177	41.57
590.628	42.11
591.078	41
591.529	42.06
591.979	43.25
592.429	41.93
592.88	42.47
593.33	42.43
593.78	38.46
594.231	41.04
594.681	43.09
595.131	41.1
595.581	43.33
596.031	41.1
596.481	42
596.932	41.78
597.382	41.58
597.832	40.48
598.282	43.42
598.732	43.59
599.182	41.01
599.632	44.48
600.081	43.24
600.531	42.52
600.981	42.16
601.431	41.96
601.881	42.71
602.33	42.5
602.78	43.89
603.23	42.55
603.679	44.74
604.129	42.86
604.579	40.63
605.028	43.85
605.478	42.38
605.927	42.03
606.377	43.1
606.826	43.64
607.276	41.34
607.725	40.66
608.175	43.24
608.624	41.78
609.073	42.26
609.522	41.83
609.972	43.91
610.421	41.78
610.87	41.2
611.319	42.4
611.768	41.99
612.218	43.95
612.667	43.49
613.116	41.94
613.565	41.89
614.014	41.79
614.463	42.32
614.912	43.81
615.361	41.84
615.81	44.31
616.258	40.97
616.707	42.08
617.156	41.13
617.605	41.5
618.054	41.8
618.502	41.62
618.951	43.17
619.4	41.72
619.848	44.42
620.297	42.6
620.745	41.34
621.194	43.34
621.642	43.55
622.091	41.54
622.539	42.38
622.988	41.07
623.436	43.57
623.885	42.38
624.333	43.35
624.781	43.26
625.23	42.49
625.678	42.16
626.126	42.72
626.574	43.45
627.022	41.64
627.471	42.22
627.919	43.4
628.367	41.37
628.815	42.28
629.263	42.54
629.711	42.38
630.159	41.54
630.607	42.67
631.055	43.81
631.503	41.71
631.95	42.09
632.398	42.91
632.846	41.76
633.294	41.55
633.742	43.27
634.189	44.53
634.637	42.93
635.085	43.5
635.532	42.03
635.98	42.55
636.427	42.49
636.875	42.29
637.323	43.14
637.77	41.25
638.217	42.39
638.665	42.88
639.112	42.27
639.56	41.28
640.007	44.42
640.454	41.54
640.902	42.96
641.349	41.09
641.796	42.02
642.243	42.46
642.69	42.15
643.138	43.38
643.585	42.59
644.032	42.42
644.479	41.25
644.926	43.61
645.373	42.75
645.82	41.75
646.267	42.08
646.714	42.7
647.161	41.41
647.607	42.76
648.054	42.68
648.501	42.99
648.948	43.43
649.395	43.32
649.841	43.74
650.288	42.75
650.735	42.92
651.181	44
651.628	44.03
652.075	43.99
652.521	43.15
652.968	43.42
653.414	41.63
653.861	42.22
654.307	43.13
654.753	41.6
655.2	42.32
655.646	42.9
656.092	42.67
656.539	44.3
656.985	42.02
657.431	42.42
657.877	42.47
658.324	44.02
658.77	43.5
659.216	42.99
659.662	43.24
660.108	41.96
660.554	42.26
661	44.36
661.446	42.25
661.892	43.22
662.338	42.61
662.784	44.04
663.23	42.33
663.675	42.96
664.121	43.75
664.567	44.89
665.013	43.97
665.458	42.29
665.904	44.22
666.35	42.92
666.795	41.94
667.241	42.89
667.687	41.59
668.132	42.32
668.578	41.75
669.023	43.08
669.469	43.84
669.914	43.5
670.359	42.79
670.805	42.91
671.25	42.91
671.695	42.74
672.141	44.26
672.586	41.29
673.031	44.36
673.476	43.55
673.922	43.18
674.367	42.48
674.812	42.74
675.257	41.23
675.702	44.44
676.147	43.56
676.592	42.28
677.037	42.4
677.482	42.62
677.927	42.47
678.372	42.27
678.817	42.5
679.261	42.58
679.706	42.47
680.151	42.64
680.596	42.85
681.04	43.27
681.485	44.51
681.93	44.01
682.374	42.61
682.819	43.4
683.264	42.42
683.708	43.19
684.153	43.18
684.597	42.51
685.042	44.44
685.486	42.8
685.93	41.62
686.375	42.72
686.819	42.89
687.263	41.99
687.708	43.26
688.152	41.94
688.596	42.58
689.04	43.07
689.485	43.38
689.929	44.59
690.373	43.39
690.817	42.27
691.261	42.62
691.705	43.3
692.149	43.13
692.593	43
693.037	43.57
693.481	43.37
693.925	42.86
694.369	43.23
694.812	43.23
695.256	42.48
695.7	42.36
696.144	43.44
696.587	43.8
697.031	43.5
697.475	44.02
697.918	42.93
698.362	43.61
698.806	43.51
699.249	44.15
699.693	43.18
700.136	41.1
700.58	43.68
701.023	43.5
701.466	42.67
701.91	42.65
702.353	44.46
702.796	43.39
703.24	42.31
703.683	43.61
704.126	42.74
704.569	43.08
705.013	42.09
705.456	42
705.899	42.64
706.342	42.2
706.785	43.29
707.228	42.82
707.671	43.25
708.114	43.71
708.557	41.53
709	43.69
709.443	43.06
709.886	41.96
710.328	43.78
710.771	42.77
711.214	43.13
711.657	43.24
712.099	44.62
712.542	44.23
712.985	44.11
713.427	42.38
713.87	43.31
714.313	42.45
714.755	42.61
715.198	42.8
715.64	43.72
716.083	44.43
716.525	43.3
716.967	43.76
717.41	43.04
717.852	42.61
718.295	42.96
718.737	43.37
719.179	44.07
719.621	42.2
720.063	43.36
720.506	42.29
720.948	43.36
721.39	42.82
721.832	43.64
722.274	44.18
722.716	44.21
723.158	43.73
723.6	44.37
724.042	42.87
724.484	43.37
724.926	42.86
725.368	42.7
725.81	42.45
726.251	42.34
726.693	43.3
727.135	44.17
727.577	44.09
728.018	43.12
728.46	43.94
728.902	43.06
729.343	42.53
729.785	43.37
730.226	42.53
730.668	44.32
731.109	44.4
731.551	43.28
731.992	43.29
732.434	43.59
732.875	44.07
733.316	43.12
733.758	43.45
734.199	43.23
734.64	42.75
735.081	43.91
735.523	43.48
735.964	43.87
736.405	43.12
736.846	43.47
737.287	42.26
737.728	43.69
738.169	43.73
738.61	42.21
739.051	44.65
739.492	44.19
739.933	43.21
740.374	43.42
740.815	43.21
741.256	43.2
741.696	43.34
742.137	44.13
742.578	43.77
743.019	42.98
743.459	43.5
743.9	42.42
744.341	42.74
744.781	42.47
745.222	44.05
745.662	43.5
746.103	44.37
746.543	43.44
746.984	42.71
747.424	42.78
747.865	44.3
748.305	44.78
748.745	43.3
749.186	44.22
749.626	44.36
750.066	42.43
750.506	42.89
750.947	43.76
751.387	43.67
751.827	43.01
752.267	43.28
752.707	43.91
753.147	43.42
753.587	42.98
754.027	43.87
754.467	44.29
754.907	42.87
755.347	43.24
755.787	44.3
756.227	43.09
756.667	43.96
757.107	43.39
757.546	44.07
757.986	42.48
758.426	42.47
758.865	43.23
759.305	41.8
759.745	43.32
760.184	42.8
760.624	42.42
761.063	44.14
761.503	43.03
761.943	43.3
762.382	43.63
762.821	44.48
763.261	45.13
763.7	42.81
764.14	43.76
764.579	44.14
765.018	44.52
765.457	45.48
765.897	43.95
766.336	43.74
766.775	44.44
767.214	43.21
767.653	43.08
768.092	43.93
768.531	45.47
768.97	43.44
769.409	43.45
769.848	44.6
770.287	43.27
770.726	44.67
771.165	43.49
771.604	44.44
772.043	43.86
772.482	43.23
772.92	43.83
773.359	43.82
773.798	43.36
774.237	43.76
774.675	43.31
775.114	44.64
775.553	44.26
775.991	44.28
776.43	43.13
776.868	42.85
777.307	42.98
777.745	44.5
778.184	42.63
778.622	43.61
779.06	43.82
779.499	43.84
779.937	42.96
780.375	44.23
780.814	43.53
781.252	44.19
781.69	44.43
782.128	44.32
782.566	43.47
783.004	42.81
783.443	43.58
783.881	43.29
784.319	43.94
784.757	43.22
785.195	43.64
785.633	44.12
786.071	43.12
786.508	43.72
786.946	43.92
787.384	44.13
787.822	43.16
788.26	44.21
788.697	43.78
789.135	43.65
789.573	44.12
790.011	43.08
790.448	42.58
790.886	43.47
791.323	43.52
791.761	43.08
792.198	43.84
792.636	43.53
793.073	43.82
793.511	43.48
793.948	43.9
794.386	44.19
794.823	43
795.26	43.98
795.698	42.92
796.135	44.22
796.572	43.4
797.009	43.61
797.446	43.73
797.884	44.61
798.321	43.26
798.758	44.57
799.195	43.46
799.632	43.58
800.069	44.41
800.506	44.12
800.943	44.54
801.38	43.56
801.817	43.24
802.254	43.09
802.69	43.53
803.127	43.93
803.564	44.03
804.001	44.36
804.438	43.75
804.874	44.68
