Data from JCR0012_Black1_Reflection_00003.txt Node
Date: Fri Jul 31 16:05:59 ACST 2020
User: Stacey Dix
Spectrometer: MAYP113282
Scans to average: 1
Trigger mode: 0
Integration Time (sec): 1.000000E-1
Electric dark correction enabled: true
Boxcar width: 0
XAxis mode: Wavelengths
Number of Pixels in Spectrum: 2068
>>>>>Begin Spectral Data<<<<<
198.791	775
199.266	78.57
199.74	100
200.215	-500
200.69	-11.68
201.164	6.59
201.639	-16.45
202.114	21.27
202.588	-0.7
203.063	13.88
203.537	-3.45
204.012	9.57
204.486	3.72
204.961	-11.63
205.435	-15.1
205.909	12.6
206.384	-20
206.858	28.45
207.332	17.74
207.807	3.04
208.281	2.29
208.755	2.68
209.229	11.39
209.703	22.96
210.177	2.58
210.651	32.33
211.126	-1.38
211.6	27
212.074	0.79
212.548	14.29
213.021	-4.35
213.495	2.7
213.969	17.27
214.443	-13.45
214.917	11.24
215.391	14.11
215.864	5.19
216.338	5.16
216.812	4
217.286	0.4
217.759	10.9
218.233	3.97
218.706	12.11
219.18	13
219.654	8.41
220.127	15.19
220.6	7.74
221.074	-0.18
221.547	5.9
222.021	-2.1
222.494	5.7
222.967	13.19
223.441	6.83
223.914	2.48
224.387	4.08
224.86	4.99
225.334	5.41
225.807	7.69
226.28	-6.82
226.753	2.14
227.226	4.63
227.699	7.2
228.172	2.77
228.645	4.25
229.118	5.84
229.591	2.9
230.064	4.98
230.537	2.95
231.01	3.29
231.482	5.6
231.955	6.19
232.428	5.08
232.901	4.08
233.373	5.88
233.846	4.32
234.319	4.36
234.791	4.46
235.264	5.12
235.736	4.2
236.209	2.78
236.681	4.56
237.154	3.95
237.626	3.51
238.099	2.26
238.571	4.33
239.044	4.44
239.516	4.18
239.988	4.74
240.46	4.23
240.933	3.43
241.405	4.53
241.877	3.32
242.349	4.34
242.821	3.11
243.293	4.04
243.765	2.46
244.237	3.66
244.71	2.75
245.181	3.36
245.653	3.68
246.125	3.85
246.597	3.38
247.069	3.88
247.541	4.38
248.013	4.27
248.485	4.42
248.956	3.58
249.428	4.58
249.9	3.66
250.371	3.48
250.843	3.58
251.315	3.79
251.786	2.73
252.258	3.05
252.729	4.38
253.201	4.34
253.672	3.76
254.144	3.78
254.615	3.07
255.086	3.6
255.558	4.13
256.029	4.25
256.5	3.6
256.972	3.6
257.443	3.75
257.914	1.73
258.385	3.11
258.856	3.72
259.327	3.67
259.799	3.34
260.27	2.45
260.741	3.81
261.212	3.38
261.683	3.61
262.154	3.11
262.624	3.75
263.095	3.46
263.566	3.23
264.037	2.89
264.508	3.23
264.979	3.3
265.449	2.77
265.92	2.42
266.391	2.39
266.861	3.29
267.332	3.47
267.803	3.08
268.273	3.45
268.744	3.18
269.214	4.13
269.685	2.91
270.155	3.1
270.626	3.72
271.096	2.67
271.566	3.94
272.037	3.16
272.507	2.97
272.977	4.14
273.448	2.75
273.918	3.1
274.388	4.36
274.858	3.43
275.328	2.45
275.798	3.11
276.268	2.8
276.738	2.67
277.208	3.19
277.678	2.84
278.148	3.25
278.618	3.75
279.088	3.95
279.558	2.79
280.028	3.03
280.498	2.03
280.968	3.45
281.437	3.27
281.907	3.06
282.377	2.67
282.847	3.39
283.316	2.08
283.786	3.37
284.255	2.64
284.725	2.77
285.194	3.24
285.664	2.31
286.133	2.67
286.603	2.83
287.072	2.51
287.542	3.04
288.011	2.42
288.48	2.07
288.95	4.22
289.419	3.12
289.888	3.41
290.357	3.07
290.827	3.33
291.296	2.62
291.765	3.02
292.234	3.32
292.703	3
293.172	3.2
293.641	2.74
294.11	3.29
294.579	3.04
295.048	2.4
295.517	3.48
295.986	3.43
296.455	3.62
296.923	3.02
297.392	3
297.861	3.23
298.33	2.9
298.798	3.4
299.267	2.54
299.736	2.12
300.204	3.7
300.673	2.17
301.141	2.6
301.61	4.08
302.079	3.13
302.547	2.3
303.015	3.21
303.484	2.84
303.952	3.28
304.421	2.64
304.889	1.91
305.357	2.81
305.825	2.2
306.294	2.61
306.762	2.55
307.23	2.52
307.698	2.53
308.166	2.14
308.634	3.07
309.103	3.34
309.571	2.42
310.039	2.44
310.507	3.09
310.975	3.11
311.442	3.48
311.91	2.94
312.378	3.57
312.846	2.61
313.314	3.15
313.782	3.16
314.249	2.99
314.717	3.46
315.185	3.93
315.652	2.87
316.12	2.97
316.588	2.8
317.055	3.52
317.523	3.15
317.99	2.81
318.458	3.11
318.925	3.57
319.393	3.21
319.86	3.34
320.328	4.19
320.795	4.25
321.262	3.52
321.73	3.42
322.197	3.13
322.664	4.36
323.131	4.02
323.598	4.71
324.066	5.33
324.533	4.63
325	5.37
325.467	5.28
325.934	6.85
326.401	6.59
326.868	7.16
327.335	8.86
327.802	7.43
328.269	7.38
328.735	8.44
329.202	8.58
329.669	9.15
330.136	8.69
330.603	9.45
331.069	10.75
331.536	11.36
332.003	10.21
332.469	9.23
332.936	10.61
333.402	9.77
333.869	10.95
334.336	12.13
334.802	10.67
335.268	10.7
335.735	12.23
336.201	11.02
336.668	10.5
337.134	11.1
337.6	11.74
338.067	10.54
338.533	11.8
338.999	10.09
339.465	8.54
339.931	10.66
340.398	11.2
340.864	10.54
341.33	9.8
341.796	10.26
342.262	9.89
342.728	9.45
343.194	10.59
343.66	9.62
344.126	10.64
344.592	10.35
345.057	10.32
345.523	9.67
345.989	9.96
346.455	9.55
346.921	9.1
347.386	9.52
347.852	8.62
348.318	10.41
348.783	8.25
349.249	10.13
349.714	9.89
350.18	10.68
350.645	9.73
351.111	9.79
351.576	10.64
352.042	10.37
352.507	9.48
352.973	9.33
353.438	8.51
353.903	10.47
354.369	10.29
354.834	9.71
355.299	9.03
355.764	11.15
356.229	9.31
356.695	10
357.16	9.67
357.625	9.05
358.09	9.42
358.555	9.84
359.02	9.53
359.485	8.55
359.95	10.1
360.415	10.77
360.879	9.29
361.344	10.33
361.809	9.95
362.274	9.68
362.739	9.9
363.203	11.06
363.668	10.12
364.133	10.36
364.597	10.12
365.062	10.67
365.527	9.33
365.991	10.03
366.456	9.56
366.92	11.24
367.385	12.5
367.849	8.35
368.314	10.5
368.778	10.68
369.242	10.08
369.707	10.42
370.171	9.67
370.635	11.29
371.1	9.15
371.564	12.21
372.028	11.7
372.492	11.86
372.956	10.89
373.42	10.71
373.884	10.91
374.348	10.69
374.812	10.39
375.276	11.49
375.74	11.43
376.204	11.48
376.668	10.58
377.132	11.39
377.596	11.81
378.06	11.06
378.524	12.07
378.987	10.25
379.451	10.81
379.915	11.08
380.378	10.53
380.842	12.11
381.306	9.99
381.769	13.03
382.233	11.19
382.696	11.51
383.16	10.51
383.623	12.11
384.087	11.52
384.55	10.6
385.014	10.66
385.477	11.21
385.94	10.53
386.404	12.48
386.867	10.71
387.33	12.52
387.793	11.1
388.256	11.4
388.72	9.89
389.183	9.87
389.646	10.59
390.109	11.94
390.572	11.97
391.035	10.59
391.498	11.03
391.961	11.29
392.424	10.53
392.887	11.26
393.35	11.47
393.812	11.82
394.275	11.49
394.738	11.65
395.201	11.18
395.664	11.52
396.126	12.31
396.589	10.71
397.052	10.92
397.514	11.81
397.977	10.9
398.439	11.14
398.902	11.15
399.364	10.36
399.827	11.13
400.289	10.77
400.752	12.17
401.214	10.94
401.676	11.4
402.139	11.41
402.601	11.25
403.063	10.46
403.525	11.57
403.988	10.78
404.45	10.39
404.912	11.07
405.374	11.56
405.836	10.01
406.298	9.54
406.76	11.15
407.222	9.97
407.684	11.45
408.146	10.33
408.608	9.81
409.07	11.16
409.532	9.87
409.994	10.1
410.456	10.62
410.917	10.08
411.379	9.95
411.841	10.8
412.303	9.19
412.764	11.59
413.226	10.67
413.687	9.62
414.149	11.16
414.611	9.59
415.072	8.24
415.534	11.24
415.995	10.4
416.457	10.78
416.918	11.81
417.379	11.06
417.841	10.02
418.302	10.12
418.763	9.42
419.225	10.58
419.686	11.46
420.147	10.73
420.608	11.78
421.069	9.94
421.53	13.32
421.991	12.92
422.453	11.11
422.914	10.3
423.375	11.06
423.836	10.25
424.297	10.79
424.757	10.45
425.218	11.94
425.679	10.32
426.14	12.63
426.601	10.98
427.062	11.87
427.522	12.58
427.983	11.86
428.444	13.19
428.904	10.34
429.365	14.35
429.826	11.3
430.286	13.59
430.747	12.25
431.207	10.8
431.668	12.74
432.128	11.23
432.589	11.81
433.049	13.14
433.509	15.01
433.97	11.1
434.43	14.56
434.89	12.89
435.351	12.42
435.811	12.72
436.271	12.69
436.731	13.19
437.191	11.2
437.651	13.64
438.112	14.15
438.572	10.98
439.032	12.07
439.492	12.99
439.952	13.09
440.412	13.68
440.871	15.02
441.331	10.35
441.791	11.54
442.251	12.89
442.711	13.15
443.171	15.43
443.63	13.84
444.09	12.74
444.55	12.55
445.009	12.67
445.469	12.32
445.929	11.05
446.388	13.4
446.848	11.72
447.307	11.76
447.767	15.36
448.226	14.07
448.686	13.41
449.145	12.97
449.604	13.74
450.064	14.93
450.523	13.58
450.982	15.12
451.442	15.27
451.901	13.56
452.36	14.18
452.819	12.99
453.278	14.47
453.737	13.11
454.197	14.56
454.656	14.24
455.115	12.13
455.574	14.72
456.033	15.42
456.492	13.51
456.95	15.27
457.409	14.97
457.868	13.64
458.327	14.65
458.786	15.02
459.245	14.04
459.703	11.7
460.162	15.06
460.621	14.29
461.079	15.13
461.538	12.27
461.997	14.19
462.455	16.95
462.914	14.17
463.372	13.47
463.831	14.5
464.289	14.19
464.748	13.78
465.206	15.01
465.664	15.84
466.123	14.59
466.581	13.18
467.039	15.71
467.497	13.92
467.956	13.3
468.414	16.55
468.872	13.58
469.33	14.07
469.788	15.85
470.246	15.57
470.704	13.81
471.162	13.32
471.62	11.58
472.078	14.06
472.536	12.31
472.994	12.24
473.452	13.55
473.91	13.51
474.368	12.88
474.826	14.87
475.283	13.85
475.741	16.34
476.199	16.38
476.656	15.91
477.114	13.95
477.572	14.49
478.029	14.08
478.487	14.26
478.944	13.88
479.402	14.52
479.859	14.06
480.317	16.31
480.774	13.94
481.232	13.28
481.689	15.02
482.146	15.42
482.604	14.13
483.061	15.62
483.518	12.88
483.975	11.53
484.433	14.94
484.89	12.57
485.347	13.98
485.804	17.65
486.261	14.23
486.718	13.55
487.175	13.8
487.632	16.19
488.089	15.1
488.546	16.79
489.003	15.69
489.46	13.27
489.917	12.88
490.373	14.88
490.83	13.76
491.287	14.71
491.744	15.6
492.2	14.46
492.657	16.42
493.114	14.37
493.57	15.95
494.027	14.44
494.484	14.05
494.94	15.54
495.397	14.14
495.853	15.77
496.31	13.87
496.766	14.06
497.222	14.48
497.679	12.83
498.135	13.95
498.591	15.06
499.048	11.51
499.504	13.76
499.96	16.06
500.416	14.12
500.872	16.72
501.329	15.66
501.785	16.03
502.241	15.67
502.697	14.5
503.153	16.34
503.609	14.57
504.065	16.37
504.521	14.44
504.977	16.68
505.432	14.58
505.888	15.61
506.344	15.22
506.8	14.68
507.256	14.22
507.711	16.19
508.167	13.36
508.623	15.79
509.078	13.17
509.534	16.94
509.99	16.23
510.445	14.69
510.901	14.42
511.356	14.17
511.812	16.98
512.267	15.2
512.722	12.99
513.178	15.16
513.633	16.61
514.089	15.87
514.544	13.96
514.999	14.54
515.454	13
515.91	15.26
516.365	13.58
516.82	15.07
517.275	12.76
517.73	15.47
518.185	15.42
518.64	15.57
519.095	14.73
519.55	16.17
520.005	14.62
520.46	13.9
520.915	15.3
521.37	13.64
521.825	14.72
522.28	15.48
522.734	14.14
523.189	15.68
523.644	15.77
524.099	14.2
524.553	14.36
525.008	15.54
525.462	15.54
525.917	14.42
526.372	15.93
526.826	14.58
527.281	14.7
527.735	13.9
528.19	13.33
528.644	16.68
529.098	13.76
529.553	13.5
530.007	14.39
530.461	15.25
530.916	15.67
531.37	14.33
531.824	16.57
532.278	16.44
532.732	13.68
533.186	16.16
533.641	14.14
534.095	15.34
534.549	14.47
535.003	16.45
535.457	15.2
535.911	15.62
536.365	15.03
536.818	16.47
537.272	13.56
537.726	15.55
538.18	15.36
538.634	14.4
539.087	16.43
539.541	17.23
539.995	13.79
540.449	14.85
540.902	14.99
541.356	16.37
541.809	13.89
542.263	14.49
542.716	13.81
543.17	14.53
543.623	15.28
544.077	14.38
544.53	14.32
544.984	16.62
545.437	14.43
545.89	14.02
546.344	13.4
546.797	15.86
547.25	14.05
547.703	15.57
548.157	14.85
548.61	14.33
549.063	15.75
549.516	15.64
549.969	15.61
550.422	14.42
550.875	15.44
551.328	15.27
551.781	14.72
552.234	14.75
552.687	13.92
553.14	15.21
553.592	15.51
554.045	16.32
554.498	16.18
554.951	16.25
555.404	15.04
555.856	14.95
556.309	15.31
556.762	13.73
557.214	16.08
557.667	14.71
558.119	14.82
558.572	14.57
559.024	16.89
559.477	15.93
559.929	14.71
560.382	15.19
560.834	16.05
561.286	14.2
561.739	16.02
562.191	14.83
562.643	16.29
563.095	15.34
563.548	15.61
564	14.35
564.452	14.64
564.904	16.01
565.356	16.54
565.808	16.4
566.26	15.86
566.712	16.64
567.164	15.79
567.616	15.11
568.068	16.24
568.52	14.75
568.972	16.94
569.424	15.35
569.876	14.33
570.327	15.76
570.779	16.16
571.231	16.2
571.682	17.48
572.134	15.93
572.586	16.08
573.037	15.31
573.489	16.36
573.941	15.82
574.392	15.3
574.844	15.5
575.295	15.96
575.746	14.8
576.198	16.14
576.649	17.63
577.101	13.92
577.552	14.68
578.003	15.86
578.454	16.59
578.906	15.41
579.357	15.8
579.808	15.86
580.259	15.7
580.71	15.52
581.161	16.35
581.612	16.5
582.064	15.35
582.515	15.17
582.965	16.26
583.416	15.49
583.867	15.43
584.318	16.12
584.769	15.29
585.22	15.27
585.671	15.42
586.122	15.84
586.572	14.72
587.023	17.1
587.474	15.7
587.924	15.73
588.375	16.43
588.826	16.52
589.276	16.3
589.727	15.97
590.177	15.77
590.628	14.87
591.078	16.24
591.529	16.09
591.979	15.2
592.429	16.11
592.88	14.73
593.33	16.23
593.78	15.86
594.231	15.65
594.681	17.35
595.131	14.68
595.581	15.07
596.031	15.65
596.481	16.8
596.932	16.02
597.382	15.61
597.832	17.98
598.282	15.85
598.732	16.87
599.182	15.89
599.632	17.28
600.081	16.46
600.531	15.91
600.981	15.16
601.431	15.66
601.881	16.05
602.33	14.92
602.78	16.39
603.23	17.32
603.679	16.33
604.129	17.73
604.579	16.2
605.028	16.41
605.478	15.95
605.927	18.17
606.377	16.01
606.826	14.99
607.276	16.15
607.725	15.84
608.175	16.31
608.624	15.33
609.073	16.12
609.522	15.5
609.972	16.85
610.421	16.58
610.87	16.96
611.319	15.46
611.768	15.09
612.218	17
612.667	16.42
613.116	15.89
613.565	16.52
614.014	16.05
614.463	16.4
614.912	16.28
615.361	16.04
615.81	15.82
616.258	16.16
616.707	16.59
617.156	17.06
617.605	16.24
618.054	15.71
618.502	15.94
618.951	16.38
619.4	16.88
619.848	16.78
620.297	16.08
620.745	16.14
621.194	16.19
621.642	15.35
622.091	16.44
622.539	17.01
622.988	15.45
623.436	16.67
623.885	15.88
624.333	17.33
624.781	15.77
625.23	16.56
625.678	17.01
626.126	16.19
626.574	16.83
627.022	16.4
627.471	16.49
627.919	16.81
628.367	16.64
628.815	15.85
629.263	16.8
629.711	16.3
630.159	17.42
630.607	16.59
631.055	16.78
631.503	16.95
631.95	16.62
632.398	16.31
632.846	16.92
633.294	16.44
633.742	16.46
634.189	16.55
634.637	16.47
635.085	17.1
635.532	16.31
635.98	15.95
636.427	16.53
636.875	16.95
637.323	16.63
637.77	16.53
638.217	16.19
638.665	16.04
639.112	17.74
639.56	17.25
640.007	17.41
640.454	17.57
640.902	17.17
641.349	17.61
641.796	17.1
642.243	16.37
642.69	16.61
643.138	17.38
643.585	16.72
644.032	17.02
644.479	16.88
644.926	16.96
645.373	17.53
645.82	17.35
646.267	16.52
646.714	16.52
647.161	17.21
647.607	17.33
648.054	17.13
648.501	17.7
648.948	16.79
649.395	16.35
649.841	17.35
650.288	17.33
650.735	15.93
651.181	17.23
651.628	16.7
652.075	17.57
652.521	17.3
652.968	17.02
653.414	18.36
653.861	17.2
654.307	17.54
654.753	16.76
655.2	17.91
655.646	17.34
656.092	16.62
656.539	17.16
656.985	17.26
657.431	17.68
657.877	16.75
658.324	17.12
658.77	18.01
659.216	17.19
659.662	16.52
660.108	16.28
660.554	16.84
661	16.61
661.446	16.57
661.892	16.91
662.338	17
662.784	17.34
663.23	17.26
663.675	16.61
664.121	17.8
664.567	16.94
665.013	17.04
665.458	17.87
665.904	17.29
666.35	17.48
666.795	16.85
667.241	17.22
667.687	17.25
668.132	16.72
668.578	16.62
669.023	16.75
669.469	16.9
669.914	16.34
670.359	16.9
670.805	16.89
671.25	17.8
671.695	16.85
672.141	16.79
672.586	17.29
673.031	17.02
673.476	17.67
673.922	17.37
674.367	16.28
674.812	16.35
675.257	16.79
675.702	17.62
676.147	15.97
676.592	16.92
677.037	17.2
677.482	17.26
677.927	17.63
678.372	17.25
678.817	16.49
679.261	17.4
679.706	17.08
680.151	17.31
680.596	16.63
681.04	16.84
681.485	17.22
681.93	17.17
682.374	17.47
682.819	16.64
683.264	17.87
683.708	16.95
684.153	17.56
684.597	16.56
685.042	16.88
685.486	17.12
685.93	16.46
686.375	17.42
686.819	17.14
687.263	16.97
687.708	16.54
688.152	16.56
688.596	17.17
689.04	17.54
689.485	18.08
689.929	17.52
690.373	17.36
690.817	17.2
691.261	17.73
691.705	17.4
692.149	17.86
692.593	17.96
693.037	17.58
693.481	17.4
693.925	17.29
694.369	17.41
694.812	17.41
695.256	17.73
695.7	17.13
696.144	17.47
696.587	17.37
697.031	17.6
697.475	17.62
697.918	18.16
698.362	17.91
698.806	17.76
699.249	17.72
699.693	18.16
700.136	17.86
700.58	17.59
701.023	17.14
701.466	18.4
701.91	17.74
702.353	17.91
702.796	17.56
703.24	17.55
703.683	17.03
704.126	18.46
704.569	17.64
705.013	17.77
705.456	17.62
705.899	17.85
706.342	17.83
706.785	17.75
707.228	17.88
707.671	18.1
708.114	17.72
708.557	17.52
709	17.53
709.443	17.11
709.886	17.79
710.328	17.71
710.771	17.3
711.214	17.35
711.657	17.74
712.099	17.36
712.542	17.18
712.985	17.57
713.427	17.59
713.87	17.91
714.313	18.01
714.755	17.25
715.198	17.77
715.64	17.14
716.083	17.57
716.525	17.07
716.967	17.33
717.41	18.48
717.852	17.59
718.295	18.11
718.737	17.87
719.179	16.94
719.621	17.66
720.063	18.49
720.506	18.31
720.948	18.15
721.39	17.4
721.832	17.61
722.274	18.24
722.716	17.59
723.158	17.02
723.6	18.67
724.042	18.7
724.484	18.11
724.926	17.82
725.368	17.02
725.81	16.96
726.251	18.25
726.693	18.18
727.135	18.41
727.577	17.92
728.018	18.12
728.46	18.07
728.902	17.45
729.343	18.12
729.785	17.45
730.226	16.99
730.668	17.93
731.109	18.36
731.551	17.69
731.992	17.05
732.434	17.66
732.875	18.1
733.316	17.64
733.758	17.62
734.199	17.39
734.64	17.44
735.081	17.65
735.523	17.44
735.964	18.3
736.405	18.15
736.846	18.82
737.287	17.45
737.728	18.52
738.169	17.59
738.61	18.16
739.051	18.25
739.492	17.35
739.933	18.19
740.374	18.24
740.815	17.34
741.256	17.77
741.696	17.98
742.137	18.13
742.578	17.49
743.019	17.78
743.459	18.01
743.9	17.32
744.341	17.36
744.781	16.88
745.222	18.42
745.662	17.93
746.103	18.36
746.543	17.92
746.984	18.92
747.424	17.5
747.865	18.5
748.305	17.98
748.745	17.98
749.186	18.22
749.626	18.03
750.066	18.61
750.506	17.75
750.947	18.01
751.387	18.02
751.827	18.34
752.267	18.31
752.707	18.52
753.147	18.46
753.587	17.11
754.027	17.44
754.467	17.36
754.907	17.88
755.347	19.01
755.787	18.09
756.227	18.35
756.667	18.23
757.107	19.09
757.546	17.6
757.986	18.02
758.426	17.49
758.865	17.6
759.305	17.98
759.745	18.35
760.184	17.92
760.624	17.77
761.063	18.38
761.503	18.88
761.943	17.9
762.382	18.18
762.821	18.61
763.261	18.58
763.7	17.76
764.14	18.27
764.579	18.38
765.018	18.5
765.457	18.02
765.897	18.31
766.336	19.32
766.775	17.96
767.214	18.2
767.653	17.39
768.092	18.49
768.531	18.02
768.97	18.43
769.409	18.24
769.848	18.54
770.287	18.65
770.726	18.29
771.165	18.51
771.604	18.4
772.043	18.67
772.482	18.01
772.92	19.04
773.359	18.7
773.798	18.53
774.237	18.16
774.675	18.4
775.114	18.56
775.553	18.29
775.991	18.57
776.43	18.37
776.868	18.79
777.307	18.52
777.745	18.28
778.184	18.34
778.622	17.81
779.06	18.4
779.499	18.63
779.937	18.26
780.375	18.42
780.814	18.33
781.252	18.46
781.69	18.38
782.128	17.82
782.566	18.3
783.004	18.35
783.443	18.53
783.881	18.6
784.319	18.8
784.757	18.69
785.195	18.65
785.633	18.74
786.071	19.16
786.508	18.59
786.946	18.53
787.384	18.65
787.822	17.99
788.26	18.85
788.697	18.17
789.135	18.62
789.573	18.43
790.011	18.8
790.448	18.52
790.886	18.72
791.323	18.85
791.761	18.5
792.198	19.01
792.636	19.16
793.073	18.69
793.511	18.97
793.948	19.11
794.386	19
794.823	18.68
795.26	18.73
795.698	18.58
796.135	19.24
796.572	18.88
797.009	18.93
797.446	19.01
797.884	19.05
798.321	18.68
798.758	18.6
799.195	18.83
799.632	18.9
800.069	18.57
800.506	18.78
800.943	18.58
801.38	19
801.817	18.5
802.254	18.99
802.69	18.94
803.127	18.57
803.564	18.91
804.001	18.43
804.438	19.01
804.874	19.14
805.311	18.31
805.748	18.84
806.184	19.51
806.621	19
807.057	18.86
807.494	19.43
807.93	19.15
808.367	19.06
808.803	19.4
809.24	18.74
809.676	18.96
810.112	18.93
810.549	18.88
810.985	19.11
811.421	19.68
811.857	19.46
812.294	19.32
812.73	18.65
813.166	18.95
813.602	19.49
814.038	19.12
814.474	19.2
