Data from JCR0016_Black1_Reflection_00002.txt Node
Date: Thu Jul 23 15:36:32 ACST 2020
User: Stacey Dix
Spectrometer: MAYP113282
Scans to average: 1
Trigger mode: 0
Integration Time (sec): 1.000000E-1
Electric dark correction enabled: true
Boxcar width: 0
XAxis mode: Wavelengths
Number of Pixels in Spectrum: 2068
>>>>>Begin Spectral Data<<<<<
198.791	-1500
199.266	1100
199.74	71.43
200.215	-14.29
200.69	-3.61
201.164	-17.33
201.639	15.49
202.114	16.31
202.588	18.52
203.063	-2.26
203.537	-100
204.012	3.37
204.486	17.99
204.961	21.84
205.435	7.32
205.909	1.05
206.384	14.29
206.858	29.9
207.332	-20
207.807	-12.87
208.281	34.31
208.755	4.5
209.229	8.4
209.703	11.71
210.177	14.53
210.651	2.19
211.126	8.97
211.6	6.57
212.074	11.72
212.548	10.24
213.021	3.55
213.495	17.07
213.969	-14.29
214.443	-6.98
214.917	10.64
215.391	7.69
215.864	15.79
216.338	9.29
216.812	12.57
217.286	15.42
217.759	8.6
218.233	-30.07
218.706	14.45
219.18	21.89
219.654	19.6
220.127	17.6
220.6	17.05
221.074	14.18
221.547	4.76
222.021	26.41
222.494	34.8
222.967	16.97
223.441	21.86
223.914	9.83
224.387	35.87
224.86	19.63
225.334	14.12
225.807	27.93
226.28	11.39
226.753	29.36
227.226	22.67
227.699	30.07
228.172	30.39
228.645	11.86
229.118	22.24
229.591	23.24
230.064	23
230.537	29.43
231.01	30.91
231.482	29.22
231.955	28.16
232.428	25.43
232.901	28.05
233.373	28.69
233.846	25.14
234.319	17.8
234.791	25.32
235.264	24.92
235.736	22.09
236.209	20.18
236.681	23.9
237.154	27.48
237.626	25.62
238.099	23.01
238.571	23.84
239.044	21.61
239.516	25.32
239.988	21.44
240.46	23.91
240.933	25.18
241.405	23.23
241.877	20.84
242.349	24.21
242.821	23.48
243.293	21.7
243.765	21.08
244.237	24.46
244.71	24.17
245.181	22.89
245.653	21.64
246.125	24.59
246.597	23.35
247.069	24.78
247.541	20.72
248.013	18.65
248.485	18.6
248.956	18.33
249.428	16.94
249.9	24.8
250.371	21.48
250.843	22.75
251.315	20.67
251.786	19.65
252.258	20.77
252.729	22.22
253.201	20.3
253.672	18.48
254.144	19.02
254.615	19
255.086	18.78
255.558	20.72
256.029	17.98
256.5	19.71
256.972	19.27
257.443	20.39
257.914	19.55
258.385	20.92
258.856	19.01
259.327	19.96
259.799	19.48
260.27	19.59
260.741	18.76
261.212	18.9
261.683	20.61
262.154	20.11
262.624	18.53
263.095	17.83
263.566	19.06
264.037	18.82
264.508	21.96
264.979	17.59
265.449	18.42
265.92	19.42
266.391	18.11
266.861	17.08
267.332	19.57
267.803	17.58
268.273	19.52
268.744	19.75
269.214	20.65
269.685	19.06
270.155	17.12
270.626	18.93
271.096	19.23
271.566	18.62
272.037	18.04
272.507	19.19
272.977	20.28
273.448	20
273.918	19.35
274.388	15.6
274.858	19.92
275.328	19.82
275.798	17.76
276.268	19.92
276.738	20.06
277.208	18.75
277.678	17.12
278.148	17.8
278.618	17.52
279.088	15.86
279.558	19.8
280.028	18.32
280.498	17.86
280.968	18.87
281.437	18.88
281.907	20.09
282.377	20.55
282.847	17.45
283.316	18.58
283.786	18.71
284.255	17.74
284.725	20.33
285.194	18.13
285.664	17.3
286.133	17.16
286.603	18.19
287.072	17.4
287.542	18.03
288.011	17.53
288.48	18.07
288.95	16.74
289.419	19.01
289.888	17.05
290.357	18.32
290.827	16.82
291.296	18
291.765	17.15
292.234	18.12
292.703	19.74
293.172	18.65
293.641	15.57
294.11	17.27
294.579	19.33
295.048	18.73
295.517	18.32
295.986	16.3
296.455	18.59
296.923	16.18
297.392	18.35
297.861	16.44
298.33	16.43
298.798	15.5
299.267	18.43
299.736	17.42
300.204	18.38
300.673	16.1
301.141	16.02
301.61	16.82
302.079	17.53
302.547	15.51
303.015	16.6
303.484	18.37
303.952	14.45
304.421	17.99
304.889	13.92
305.357	18.68
305.825	14.46
306.294	16.18
306.762	16.75
307.23	14.64
307.698	14.85
308.166	15.93
308.634	16.73
309.103	16.53
309.571	15.2
310.039	16.55
310.507	12.14
310.975	14.05
311.442	15.62
311.91	15.94
312.378	14.08
312.846	12.33
313.314	14.63
313.782	14.35
314.249	13.53
314.717	15.66
315.185	13.05
315.652	13.15
316.12	14.82
316.588	13.84
317.055	15.54
317.523	13.64
317.99	14.72
318.458	14.64
318.925	13.41
319.393	15.14
319.86	12.76
320.328	12.06
320.795	12.27
321.262	12.09
321.73	13.96
322.197	12.77
322.664	14.72
323.131	13.84
323.598	13.53
324.066	11.64
324.533	10.83
325	13.02
325.467	11.85
325.934	13.77
326.401	14.11
326.868	15.24
327.335	11.13
327.802	12.59
328.269	12.45
328.735	12.74
329.202	12.39
329.669	11.12
330.136	12.34
330.603	11.65
331.069	12.45
331.536	10.97
332.003	10.29
332.469	12.55
332.936	10.53
333.402	11.22
333.869	12.88
334.336	11.97
334.802	12.58
335.268	12.1
335.735	11.06
336.201	9.61
336.668	9.71
337.134	11.63
337.6	10.3
338.067	12.79
338.533	10.91
338.999	10.61
339.465	11.22
339.931	11.89
340.398	11.48
340.864	8.82
341.33	9.89
341.796	11.18
342.262	10.52
342.728	9.77
343.194	11.45
343.66	9.98
344.126	9.9
344.592	10.8
345.057	12.63
345.523	10.45
345.989	11.03
346.455	11.26
346.921	9.86
347.386	9.39
347.852	9.46
348.318	10.08
348.783	9.42
349.249	10.92
349.714	10.93
350.18	9.87
350.645	9.63
351.111	9.16
351.576	6.84
352.042	10.14
352.507	9.13
352.973	8.3
353.438	10.51
353.903	7.7
354.369	9.75
354.834	10
355.299	10.12
355.764	8.98
356.229	9.1
356.695	7.68
357.16	9.38
357.625	8.95
358.09	9.73
358.555	9.56
359.02	10.02
359.485	8.72
359.95	8.27
360.415	8.45
360.879	7.78
361.344	8.98
361.809	9.49
362.274	8.74
362.739	8.55
363.203	10.6
363.668	7.52
364.133	7.64
364.597	8.67
365.062	9.55
365.527	8.11
365.991	7.23
366.456	9.61
366.92	8.29
367.385	8.57
367.849	10.14
368.314	9.41
368.778	8.56
369.242	10.6
369.707	8.46
370.171	8.84
370.635	8.42
371.1	9.45
371.564	9.07
372.028	9.27
372.492	8.37
372.956	8.3
373.42	8.01
373.884	9.6
374.348	8.13
374.812	8.56
375.276	9.2
375.74	7.62
376.204	6.82
376.668	8.06
377.132	8.78
377.596	7.73
378.06	10.26
378.524	7.75
378.987	9.09
379.451	8.27
379.915	8.12
380.378	9.7
380.842	8.47
381.306	7.86
381.769	8.59
382.233	7.91
382.696	8.66
383.16	7.87
383.623	8.07
384.087	9.15
384.55	9.38
385.014	7.19
385.477	8.02
385.94	7.83
386.404	8.69
386.867	8.29
387.33	9.87
387.793	8.8
388.256	7.79
388.72	7.44
389.183	7.22
389.646	7.21
390.109	9.22
390.572	8.69
391.035	9.86
391.498	7.93
391.961	7.62
392.424	8.79
392.887	7.69
393.35	7.78
393.812	9.8
394.275	7.55
394.738	8.79
395.201	7.5
395.664	7.15
396.126	7.05
396.589	7.94
397.052	8.36
397.514	7.18
397.977	8.6
398.439	8
398.902	8.05
399.364	8.53
399.827	5.93
400.289	9.06
400.752	7.69
401.214	6.6
401.676	7.28
402.139	7.64
402.601	8.83
403.063	8.35
403.525	8.34
403.988	7.71
404.45	8.46
404.912	8.01
405.374	8.83
405.836	7.34
406.298	7.92
406.76	7.79
407.222	9.04
407.684	7.53
408.146	8.28
408.608	7.14
409.07	7.68
409.532	7.14
409.994	7.16
410.456	7.69
410.917	8.23
411.379	6.17
411.841	8.82
412.303	9.35
412.764	7.84
413.226	7.16
413.687	8.04
414.149	7.68
414.611	7.14
415.072	7.57
415.534	8.01
415.995	7.45
416.457	7.32
416.918	7.87
417.379	9.05
417.841	6.88
418.302	7.78
418.763	7.96
419.225	7.73
419.686	7.15
420.147	8.15
420.608	7.4
421.069	7.83
421.53	7.74
421.991	8.13
422.453	7.11
422.914	8.59
423.375	7.12
423.836	8.52
424.297	7.87
424.757	8.19
425.218	6.74
425.679	6.74
426.14	7.71
426.601	8.28
427.062	8.53
427.522	9.09
427.983	8.25
428.444	6.09
428.904	8.17
429.365	8.77
429.826	7.83
430.286	6.18
430.747	9.52
431.207	5.91
431.668	7.08
432.128	5.12
432.589	7.26
433.049	5.49
433.509	4.61
433.97	6.85
434.43	6.3
434.89	5.66
435.351	6.46
435.811	5.36
436.271	10.83
436.731	6.73
437.191	5.77
437.651	5.6
438.112	7.66
438.572	9.4
439.032	7.54
439.492	7.49
439.952	7.28
440.412	5.73
440.871	7.56
441.331	4.49
441.791	5.44
442.251	7.11
442.711	7.15
443.171	5.37
443.63	6.89
444.09	9.32
444.55	6.47
445.009	7.44
445.469	6.27
445.929	7.14
446.388	8.67
446.848	6.12
447.307	7.65
447.767	5.73
448.226	4.27
448.686	5.39
449.145	6.33
449.604	7.33
450.064	6.42
450.523	8.16
450.982	6.26
451.442	6.56
451.901	7.73
452.36	5.7
452.819	8.41
453.278	7.51
453.737	10.03
454.197	6.38
454.656	7.13
455.115	7.63
455.574	6.05
456.033	8.62
456.492	6.89
456.95	6.25
457.409	6.05
457.868	7.11
458.327	7.64
458.786	5.94
459.245	6.86
459.703	6.84
460.162	6.59
460.621	5.88
461.079	5.37
461.538	7.73
461.997	7.46
462.455	5.24
462.914	3.38
463.372	7.95
463.831	3.95
464.289	5.06
464.748	5.64
465.206	6.35
465.664	9.05
466.123	7.96
466.581	5.1
467.039	9.03
467.497	8.56
467.956	7.99
468.414	5.43
468.872	7.9
469.33	4.49
469.788	7.39
470.246	6.11
470.704	6.55
471.162	6.36
471.62	7.78
472.078	5.67
472.536	4.9
472.994	7.05
473.452	8.82
473.91	8.11
474.368	10.11
474.826	5.3
475.283	8.23
475.741	7.65
476.199	5.01
476.656	8.31
477.114	6.02
477.572	5.8
478.029	4.65
478.487	7.05
478.944	8.59
479.402	5.93
479.859	4.68
480.317	7.27
480.774	5.37
481.232	4.72
481.689	7.49
482.146	6.68
482.604	10.36
483.061	5.8
483.518	7.41
483.975	5.34
484.433	4.68
484.89	7.77
485.347	8.62
485.804	6.32
486.261	5.67
486.718	4.13
487.175	4.6
487.632	5.34
488.089	7.46
488.546	4.86
489.003	5.58
489.46	7.64
489.917	7.41
490.373	6.48
490.83	5.33
491.287	9.47
491.744	5.64
492.2	7.53
492.657	6.88
493.114	6.19
493.57	6.05
494.027	6.15
494.484	4.88
494.94	2.23
495.397	4.63
495.853	9.7
496.31	7.41
496.766	4.81
497.222	6.86
497.679	4.96
498.135	5.49
498.591	5.12
499.048	5.79
499.504	5.34
499.96	4.76
500.416	6.55
500.872	5.38
501.329	5.88
501.785	5.81
502.241	5.74
502.697	5.56
503.153	7.33
503.609	6.25
504.065	4.71
504.521	6.22
504.977	3.77
505.432	6.32
505.888	5.87
506.344	8.56
506.8	3.65
507.256	6.19
507.711	5.18
508.167	4.67
508.623	8.14
509.078	6.95
509.534	6.18
509.99	6.87
510.445	6.15
510.901	5.66
511.356	6.56
511.812	7.28
512.267	6.7
512.722	5.56
513.178	6.35
513.633	7.33
514.089	4.96
514.544	5.76
514.999	6.87
515.454	5.31
515.91	5.91
516.365	8.03
516.82	6.6
517.275	6.23
517.73	4.97
518.185	5.63
518.64	6.3
519.095	5.62
519.55	5.09
520.005	8.51
520.46	7.19
520.915	5.48
521.37	6.03
521.825	5.57
522.28	5.38
522.734	5.23
523.189	6.28
523.644	5.47
524.099	4.41
524.553	6.86
525.008	5.38
525.462	7.38
525.917	6.09
526.372	6.76
526.826	6
527.281	7.05
527.735	5.74
528.19	5.8
528.644	6.16
529.098	6.66
529.553	7.18
530.007	6.42
530.461	6.41
530.916	6
531.37	6.6
531.824	7.53
532.278	5.67
532.732	5.26
533.186	6.04
533.641	4.72
534.095	5.58
534.549	6.48
535.003	7.21
535.457	6.1
535.911	4.81
536.365	7.16
536.818	6.5
537.272	5.35
537.726	5.58
538.18	6.83
538.634	5.45
539.087	7.17
539.541	6.23
539.995	5.84
540.449	7.26
540.902	6.48
541.356	5.6
541.809	8.66
542.263	4.02
542.716	8.09
543.17	4.86
543.623	6.71
544.077	5.32
544.53	8.19
544.984	6.56
545.437	5.07
545.89	6.16
546.344	5.52
546.797	5.64
547.25	5.58
547.703	5.22
548.157	7.07
548.61	5.19
549.063	3.39
549.516	6.84
549.969	7.4
550.422	5.56
550.875	5.16
551.328	5.38
551.781	5.69
552.234	7.85
552.687	7.02
553.14	6.16
553.592	5.06
554.045	5.79
554.498	4.74
554.951	6.44
555.404	5.97
555.856	7.15
556.309	5.13
556.762	5.97
557.214	7.25
557.667	5.5
558.119	6.81
558.572	6.59
559.024	8.1
559.477	7
559.929	5.91
560.382	5.74
560.834	6.32
561.286	5.48
561.739	7.21
562.191	4.81
562.643	5.77
563.095	7.14
563.548	5.29
564	6.98
564.452	6.81
564.904	6.79
565.356	5.56
565.808	7.13
566.26	6.9
566.712	6.11
567.164	5.71
567.616	6.57
568.068	5.05
568.52	6.13
568.972	6.05
569.424	7.23
569.876	7.45
570.327	7.4
570.779	6.87
571.231	5.84
571.682	6.51
572.134	5.82
572.586	6.11
573.037	7.41
573.489	7.08
573.941	7.63
574.392	6.61
574.844	6.21
575.295	7.32
575.746	5.85
576.198	6.27
576.649	5.91
577.101	8.04
577.552	7.08
578.003	6.77
578.454	5.61
578.906	5.26
579.357	6.68
579.808	7.97
580.259	6.68
580.71	6.01
581.161	6.77
581.612	6.32
582.064	6.85
582.515	6.56
582.965	6.65
583.416	6.21
583.867	7.82
584.318	5.84
584.769	6.55
585.22	7.22
585.671	5.74
586.122	5.57
586.572	7.26
587.023	7.22
587.474	6.64
587.924	5.48
588.375	6.17
588.826	6.44
589.276	5.97
589.727	7.03
590.177	6.7
590.628	7.01
591.078	7.47
591.529	6.87
591.979	5.99
592.429	8.21
592.88	4.9
593.33	7.68
593.78	6.03
594.231	6.8
594.681	5.91
595.131	6.3
595.581	7.66
596.031	6.69
596.481	5.93
596.932	6.14
597.382	7.64
597.832	7.04
598.282	6.85
598.732	7.27
599.182	6.77
599.632	6.15
600.081	6.87
600.531	6.18
600.981	7.33
601.431	5.22
601.881	6.77
602.33	7.06
602.78	5.7
603.23	7.55
603.679	5.43
604.129	5.87
604.579	6.29
605.028	5.37
605.478	5.19
605.927	5.96
606.377	5.92
606.826	6.52
607.276	5.47
607.725	7.9
608.175	6.3
608.624	6.36
609.073	5.3
609.522	5.49
609.972	6.06
610.421	7.06
610.87	6.8
611.319	6.34
611.768	6.35
612.218	6.86
612.667	6.52
613.116	6.89
613.565	6.08
614.014	6.16
614.463	6.53
614.912	6.3
615.361	6.31
615.81	7.07
616.258	7.35
616.707	7.32
617.156	7.03
617.605	6.12
618.054	8.32
618.502	7.13
618.951	6.23
619.4	7.49
619.848	6.55
620.297	7.6
620.745	6.82
621.194	5.3
621.642	7.1
622.091	7.41
622.539	7
622.988	7.79
623.436	6.55
623.885	6.25
624.333	7.12
624.781	7.55
625.23	6.68
625.678	6.27
626.126	6.45
626.574	7.34
627.022	6.27
627.471	6.57
627.919	7.93
628.367	6.99
628.815	6.02
629.263	6.64
629.711	7.08
630.159	6.74
630.607	7.48
631.055	7.06
631.503	7.61
631.95	6.51
632.398	7.45
632.846	6.34
633.294	6.81
633.742	6.92
634.189	6.99
634.637	6.8
635.085	6.37
635.532	8.19
635.98	8
636.427	6.91
636.875	6.66
637.323	6.76
637.77	7.12
638.217	6.91
638.665	6.79
639.112	7.82
639.56	6.66
640.007	7.64
640.454	7.58
640.902	7.67
641.349	6.97
641.796	6.74
642.243	7.31
642.69	7.09
643.138	7.59
643.585	7.26
644.032	6.68
644.479	5.74
644.926	7.13
645.373	6.93
645.82	7.21
646.267	6.94
646.714	7.05
647.161	7.39
647.607	7.46
648.054	6.73
648.501	7.99
648.948	7.53
649.395	6.87
649.841	7.22
650.288	6.58
650.735	7.27
651.181	6.97
651.628	6.73
652.075	7.31
652.521	6.98
652.968	6.88
653.414	7.27
653.861	7
654.307	7.1
654.753	7.76
655.2	7.49
655.646	7.19
656.092	7.39
656.539	6.38
656.985	7.33
657.431	7.49
657.877	7.15
658.324	7.17
658.77	6.04
659.216	6.7
659.662	6.26
660.108	7
660.554	7.42
661	7.8
661.446	7.21
661.892	7.14
662.338	7.39
662.784	6.68
663.23	7.44
663.675	7.87
664.121	6.91
664.567	6.67
665.013	7.57
665.458	6.64
665.904	6.81
666.35	7.26
666.795	6.72
667.241	7.21
667.687	6.81
668.132	7.12
668.578	7.08
669.023	7.37
669.469	7.05
669.914	8.08
670.359	7.59
670.805	6.89
671.25	7.87
671.695	7.11
672.141	7.25
672.586	7.53
673.031	7.54
673.476	6.98
673.922	7.21
674.367	6.66
674.812	7.69
675.257	6.52
675.702	6.65
676.147	7.94
676.592	7.03
677.037	7.38
677.482	7.41
677.927	6.89
678.372	8.08
678.817	7.41
679.261	7.44
679.706	7.59
680.151	7.69
680.596	7.17
681.04	7.52
681.485	7.77
681.93	7.23
682.374	7.29
682.819	7.03
683.264	7.63
683.708	8.18
684.153	7.87
684.597	8.01
685.042	7.69
685.486	7.2
685.93	7.87
686.375	7.77
686.819	7.12
687.263	7.2
687.708	6.8
688.152	7.72
688.596	7.33
689.04	7.46
689.485	7.38
689.929	7.48
690.373	7.62
690.817	7.22
691.261	6.9
691.705	7.47
692.149	7.57
692.593	7.32
693.037	7.14
693.481	8.06
693.925	7.1
694.369	7.29
694.812	7.64
695.256	7.25
695.7	7.34
696.144	7.51
696.587	7.18
697.031	6.84
697.475	7.48
697.918	7.6
698.362	8.09
698.806	7.76
699.249	7.51
699.693	7.1
700.136	7.96
700.58	7.59
701.023	7.69
701.466	7.68
701.91	7.78
702.353	7.3
702.796	7.75
703.24	7.9
703.683	6.94
704.126	8.07
704.569	7.53
705.013	7.32
705.456	7.83
705.899	7.69
706.342	7.51
706.785	7.8
707.228	7.43
707.671	7.86
708.114	7.64
708.557	7.8
709	7.68
709.443	7.59
709.886	6.79
710.328	7.86
710.771	7.61
711.214	7.81
711.657	7.93
712.099	7.88
712.542	8.15
712.985	7.23
713.427	7.75
713.87	7.53
714.313	7.54
714.755	8.07
715.198	7.67
715.64	8.38
716.083	7.56
716.525	7.44
716.967	7.23
717.41	8.36
717.852	7.39
718.295	7.24
718.737	7.71
719.179	7.86
719.621	7.54
720.063	7.91
720.506	7.96
720.948	8.19
721.39	7.55
721.832	7.83
722.274	8.01
722.716	7.92
723.158	8.31
723.6	8.32
724.042	7.09
724.484	7.8
724.926	7.96
725.368	7.3
725.81	7.82
726.251	7.76
726.693	7.68
727.135	8.48
727.577	8.64
728.018	7.96
728.46	8.18
728.902	7.77
729.343	7.92
729.785	7.95
730.226	7.72
730.668	7.67
731.109	7.68
731.551	7.78
731.992	7.75
732.434	8.02
732.875	7.77
733.316	7.87
733.758	7.97
734.199	7.73
734.64	8.09
735.081	7.81
735.523	7.92
735.964	8.71
736.405	7.98
736.846	7.96
737.287	7.85
737.728	7.43
738.169	7.56
738.61	6.95
739.051	8.64
739.492	7.86
739.933	8.35
740.374	8.07
740.815	8
741.256	7.92
741.696	8.18
742.137	8.06
742.578	8.37
743.019	7.86
743.459	7.85
743.9	7.5
744.341	7.92
744.781	8.75
745.222	8.16
745.662	8.47
746.103	7.94
746.543	8.37
746.984	8.54
747.424	8
747.865	8.44
748.305	7.65
748.745	8.2
749.186	8.17
749.626	8.42
750.066	8.09
750.506	9.06
750.947	8.44
751.387	7.86
751.827	8.1
752.267	8.54
752.707	8.67
753.147	7.8
753.587	7.71
754.027	7.93
754.467	7.94
754.907	8.42
755.347	7.6
755.787	8.34
756.227	8.63
756.667	8.5
757.107	8.23
757.546	8.39
757.986	7.73
758.426	8.38
758.865	8.38
759.305	8.63
759.745	8.61
760.184	8.32
760.624	8.57
761.063	8.81
761.503	7.99
761.943	8.34
762.382	8.82
762.821	8.26
763.261	8.31
763.7	7.91
764.14	8.29
764.579	8.78
765.018	8.5
765.457	8.63
765.897	8.42
766.336	8.32
766.775	8.18
767.214	8.15
767.653	7.68
768.092	8.36
768.531	8.76
768.97	8.08
769.409	8.15
769.848	8.62
770.287	8.52
770.726	8.64
771.165	8.08
771.604	7.77
772.043	9.22
772.482	8.47
772.92	8.37
773.359	8.09
773.798	8.54
774.237	8.64
774.675	8.83
775.114	8.63
775.553	9.07
775.991	8.55
776.43	8.65
776.868	8.69
777.307	8.22
777.745	8.83
778.184	8.5
778.622	8.92
779.06	9.02
779.499	8.81
779.937	8.42
780.375	8.4
780.814	8.32
781.252	8.1
781.69	8.33
782.128	9.13
782.566	8.94
783.004	9.07
783.443	8.9
783.881	8.83
784.319	8.88
784.757	8.93
785.195	8.72
785.633	9.42
786.071	9.24
786.508	8.88
786.946	8.98
787.384	9.05
787.822	9.02
788.26	8.6
788.697	9.05
789.135	9.45
789.573	9.18
790.011	9.18
790.448	8.38
790.886	9.25
791.323	8.73
791.761	8.89
792.198	9.12
792.636	9.27
793.073	9.03
793.511	8.49
793.948	9.33
794.386	8.93
794.823	9.24
795.26	9.28
795.698	8.79
796.135	9.04
796.572	9.54
797.009	9.47
797.446	8.96
797.884	9.22
798.321	8.86
798.758	9.22
799.195	9.25
799.632	8.95
800.069	9.23
800.506	9.28
800.943	9.04
801.38	9.4
801.817	8.58
802.254	8.85
802.69	9.43
803.127	9.14
803.564	8.88
804.001	8.87
804.438	9.8
804.874	8.68
805.311	9.33
805.748	9.45
806.184	9.11
806.621	9.67
807.057	9.76
807.494	9.6
807.93	9.67
808.367	9.26
808.803	9.88
809.24	9.3
809.676	9.61
810.112	9.51
810.549	9.14
810.985	9.57
811.421	9.56
811.857	9.46
812.294	9.28
812.73	9.32
813.166	9.25
813.602	9.93
814.038	10
814.474	9.56
814.91	9.39
815.346	9.41
815.782	8.94
816.218	9.56
816.654	8.99
817.09	9.45
817.526	9.18
817.962	9.7
818.398	9.41
818.833	9.61
819.269	9.52
819.705	9.68
820.141	9.94
820.576	9.62
821.012	9.45
821.447	9.67
821.883	9.49
822.319	10.05
822.754	9.94
823.19	9.9
823.625	9.99
824.061	9.63
824.496	9.49
824.931	9.63
825.367	9.93
825.802	10.18
826.237	9.67
826.673	9.73
827.108	10.23
827.543	9.83
827.978	10.14
828.413	9.81
828.849	9.73
829.284	9.78
829.719	9.55
830.154	9.28
830.589	10.38
831.024	9.93
831.459	9.61
831.894	10.22
832.329	10.13
832.763	9.98
833.198	10.08
833.633	10.43
834.068	9.46
834.503	9.89
834.937	9.55
835.372	10.45
835.807	10.24
836.241	9.71
836.676	10.22
837.111	10.23
