Data from JCR0006_Black1_Reflection_00003.txt Node
Date: Wed Jul 22 14:10:10 ACST 2020
User: Stacey Dix
Spectrometer: MAYP113282
Scans to average: 1
Trigger mode: 0
Integration Time (sec): 1.000000E-1
Electric dark correction enabled: true
Boxcar width: 0
XAxis mode: Wavelengths
Number of Pixels in Spectrum: 2068
>>>>>Begin Spectral Data<<<<<
198.791	-166.67
199.266	-100
199.74	185.71
200.215	42.86
200.69	-64.84
201.164	32.77
201.639	-15.03
202.114	3.55
202.588	-15.61
203.063	-0.52
203.537	0.56
204.012	27.46
204.486	3.08
204.961	-0.55
205.435	-19.25
205.909	15.98
206.384	-2.24
206.858	-7.32
207.332	-1.93
207.807	0.44
208.281	-14.03
208.755	-17.18
209.229	-5.03
209.703	-15.12
210.177	-29.95
210.651	-0.43
211.126	-15.42
211.6	-9.09
212.074	-4.31
212.548	-5.26
213.021	-2.47
213.495	-7.12
213.969	-2.53
214.443	9.97
214.917	-1.02
215.391	2.49
215.864	-4.1
216.338	-10.22
216.812	-1.31
217.286	11.66
217.759	0.28
218.233	3.37
218.706	-2.83
219.18	-5.54
219.654	-1.17
220.127	-3.23
220.6	-6.94
221.074	4.95
221.547	-1.42
222.021	-2.79
222.494	3.35
222.967	-3.2
223.441	6.03
223.914	-2.6
224.387	2.48
224.86	1.37
225.334	4.49
225.807	2.76
226.28	0.11
226.753	0.1
227.226	1.56
227.699	2.42
228.172	1.41
228.645	3.98
229.118	3.9
229.591	2.53
230.064	1.11
230.537	5.62
231.01	4.02
231.482	2.58
231.955	3.25
232.428	3.93
232.901	3.46
233.373	2.4
233.846	4.56
234.319	1.1
234.791	3.21
235.264	2.1
235.736	1.18
236.209	3.2
236.681	3.52
237.154	3.95
237.626	2.88
238.099	3.07
238.571	2.24
239.044	2.92
239.516	2.59
239.988	2.46
240.46	1.35
240.933	2.45
241.405	3.19
241.877	2.9
242.349	2.16
242.821	2.51
243.293	2.04
243.765	1.52
244.237	2.36
244.71	2.49
245.181	2.62
245.653	2.89
246.125	1.01
246.597	2.26
247.069	2.54
247.541	1.83
248.013	2.93
248.485	2.16
248.956	2.95
249.428	2.5
249.9	2.71
250.371	3.15
250.843	1.78
251.315	2.38
251.786	2.62
252.258	3.2
252.729	3.15
253.201	2.27
253.672	2.69
254.144	2.15
254.615	2.65
255.086	2.22
255.558	2.33
256.029	1.91
256.5	2.29
256.972	2.9
257.443	2.33
257.914	2.49
258.385	2.45
258.856	2.62
259.327	2.28
259.799	1.92
260.27	2.36
260.741	2.71
261.212	1.95
261.683	2.53
262.154	2.29
262.624	2.99
263.095	2.22
263.566	2.3
264.037	2.48
264.508	2.05
264.979	2.33
265.449	3.03
265.92	2.01
266.391	1.97
266.861	2.83
267.332	2.2
267.803	1.51
268.273	2.31
268.744	2.13
269.214	2.46
269.685	1.97
270.155	1.92
270.626	1.93
271.096	1.99
271.566	2.26
272.037	1.6
272.507	2.34
272.977	2.84
273.448	1.28
273.918	0.85
274.388	2.23
274.858	1.9
275.328	1.94
275.798	2.22
276.268	2.19
276.738	2.92
277.208	2.51
277.678	2.91
278.148	2.52
278.618	2.88
279.088	1.73
279.558	1.69
280.028	1.87
280.498	2.14
280.968	1.88
281.437	2.32
281.907	2.11
282.377	1.57
282.847	2.21
283.316	1.99
283.786	2.58
284.255	2.44
284.725	1.75
285.194	1.81
285.664	2.35
286.133	1.78
286.603	1.62
287.072	1.86
287.542	2.41
288.011	1.7
288.48	2.27
288.95	2.21
289.419	2.2
289.888	2.1
290.357	2.42
290.827	1.63
291.296	2.13
291.765	2.05
292.234	1.6
292.703	2.19
293.172	2.18
293.641	2.05
294.11	1.49
294.579	2.83
295.048	2.52
295.517	1.92
295.986	2.32
296.455	2.15
296.923	2.25
297.392	2.93
297.861	2.36
298.33	2.06
298.798	3.08
299.267	1.82
299.736	1.45
300.204	1.64
300.673	1.98
301.141	2.03
301.61	1.91
302.079	1.61
302.547	2.17
303.015	2.05
303.484	2
303.952	1.36
304.421	1.45
304.889	1.92
305.357	2.05
305.825	1.46
306.294	2.41
306.762	2.59
307.23	1.39
307.698	1.64
308.166	2.36
308.634	1.91
309.103	1.58
309.571	1.81
310.039	2.26
310.507	2.78
310.975	2.74
311.442	2.51
311.91	1.6
312.378	2.43
312.846	1.71
313.314	1.7
313.782	1.07
314.249	1.71
314.717	2.04
315.185	2.34
315.652	1.35
316.12	1.85
316.588	1.78
317.055	1.59
317.523	2
317.99	2.03
318.458	1.81
318.925	1.97
319.393	1.66
319.86	2.35
320.328	2.62
320.795	1.48
321.262	1.41
321.73	1.89
322.197	1.16
322.664	1.98
323.131	1.76
323.598	1.45
324.066	2.16
324.533	1.38
325	2.21
325.467	2.04
325.934	2.34
326.401	1.42
326.868	2.29
327.335	2.11
327.802	1.5
328.269	2.09
328.735	1.85
329.202	1.66
329.669	0.98
330.136	2.01
330.603	1.65
331.069	2.54
331.536	1.62
332.003	1.76
332.469	1.77
332.936	2.11
333.402	2.19
333.869	1.4
334.336	2.25
334.802	1.91
335.268	2.34
335.735	1
336.201	2.28
336.668	2.17
337.134	2.02
337.6	0.75
338.067	1.71
338.533	1.54
338.999	1.12
339.465	1.82
339.931	2.3
340.398	1.44
340.864	0.95
341.33	1.64
341.796	1.06
342.262	2.08
342.728	1.31
343.194	1.63
343.66	2.37
344.126	1.14
344.592	1.62
345.057	1.65
345.523	2.39
345.989	0.81
346.455	1.09
346.921	2.25
347.386	1.54
347.852	2.01
348.318	1.41
348.783	1.18
349.249	1.15
349.714	2.14
350.18	1.26
350.645	1.18
351.111	0.7
351.576	1.19
352.042	2.07
352.507	1.36
352.973	1.69
353.438	1.58
353.903	2.02
354.369	2.04
354.834	1.05
355.299	1.47
355.764	1.57
356.229	1.88
356.695	0.91
357.16	1.08
357.625	1.38
358.09	1.01
358.555	1.35
359.02	0.68
359.485	1.03
359.95	0.76
360.415	1.92
360.879	0.99
361.344	1.08
361.809	2.31
362.274	0.55
362.739	1.03
363.203	1.69
363.668	1.75
364.133	0.93
364.597	1.18
365.062	1.32
365.527	1.58
365.991	0.57
366.456	1.81
366.92	1.38
367.385	1.33
367.849	1.88
368.314	0.71
368.778	1.94
369.242	1.4
369.707	0.84
370.171	1.01
370.635	1.73
371.1	1.27
371.564	1.36
372.028	1.47
372.492	1.58
372.956	1.52
373.42	1.38
373.884	0.6
374.348	0.99
374.812	0.75
375.276	1.85
375.74	1.76
376.204	0.49
376.668	1.6
377.132	2.39
377.596	0.88
378.06	1.44
378.524	1.38
378.987	0.65
379.451	1.09
379.915	1
380.378	2.43
380.842	1.48
381.306	1.32
381.769	2.66
382.233	1.05
382.696	2.51
383.16	1.39
383.623	0.31
384.087	2.48
384.55	1.8
385.014	2.09
385.477	1.61
385.94	0.7
386.404	1.42
386.867	2
387.33	1.24
387.793	1.35
388.256	0.78
388.72	1.47
389.183	1.65
389.646	0.61
390.109	1.35
390.572	0.98
391.035	1.55
391.498	1
391.961	0.73
392.424	1.54
392.887	0.81
393.35	1.75
393.812	1.44
394.275	1.32
394.738	1.32
395.201	0.87
395.664	0.67
396.126	1.08
396.589	1.64
397.052	2.12
397.514	1.04
397.977	0.81
398.439	1.72
398.902	1.49
399.364	1.23
399.827	1.44
400.289	0.57
400.752	1.16
401.214	0.74
401.676	1.43
402.139	0.76
402.601	0.96
403.063	0.96
403.525	0.99
403.988	1.22
404.45	1.58
404.912	1.78
405.374	0.99
405.836	0.84
406.298	1.3
406.76	1.18
407.222	1.17
407.684	0.27
408.146	1.71
408.608	1.63
409.07	1.34
409.532	1.61
409.994	0.8
410.456	0.98
410.917	1.59
411.379	1.34
411.841	1.2
412.303	1.83
412.764	0.71
413.226	1.41
413.687	0.26
414.149	2.03
414.611	1.28
415.072	0.74
415.534	1.33
415.995	1.11
416.457	1.36
416.918	1.34
417.379	1.24
417.841	0.69
418.302	0.97
418.763	0.43
419.225	1.69
419.686	1.22
420.147	1.02
420.608	1.26
421.069	1.58
421.53	2.06
421.991	0.77
422.453	0.58
422.914	1.4
423.375	0.68
423.836	1.76
424.297	1.24
424.757	1.26
425.218	1.76
425.679	0.91
426.14	0.78
426.601	1.1
427.062	2.08
427.522	0.94
427.983	2.05
428.444	0.82
428.904	1.06
429.365	0.13
429.826	1.05
430.286	1.84
430.747	1.08
431.207	1.3
431.668	0.5
432.128	0.41
432.589	1.43
433.049	2.07
433.509	1.87
433.97	1.14
434.43	0.98
434.89	1.76
435.351	0.3
435.811	2.04
436.271	1.36
436.731	-0.34
437.191	2.27
437.651	0.74
438.112	1.25
438.572	-0.34
439.032	1.24
439.492	-0.13
439.952	0.49
440.412	1.95
440.871	1.65
441.331	2.59
441.791	1.48
442.251	0.61
442.711	0.55
443.171	0.81
443.63	1.35
444.09	1.26
444.55	2.37
445.009	0.87
445.469	1.37
445.929	0.94
446.388	1.95
446.848	0.41
447.307	1.45
447.767	0.07
448.226	0.41
448.686	0.99
449.145	1.83
449.604	0.69
450.064	0.57
450.523	1
450.982	0.53
451.442	1.24
451.901	0.55
452.36	0.79
452.819	1.56
453.278	0.89
453.737	1.34
454.197	1.47
454.656	1.92
455.115	0.57
455.574	1.12
456.033	1.39
456.492	0.97
456.95	0.12
457.409	0.52
457.868	1.1
458.327	1.04
458.786	1.58
459.245	0.48
459.703	1.28
460.162	0.76
460.621	0.66
461.079	0.83
461.538	0.61
461.997	0.68
462.455	1.05
462.914	0.74
463.372	1.73
463.831	0.95
464.289	1.5
464.748	1.65
465.206	1.66
465.664	1.29
466.123	0.86
466.581	1.82
467.039	1.36
467.497	0.09
467.956	1.23
468.414	0.27
468.872	1.82
469.33	0.98
469.788	1.22
470.246	0.89
470.704	0.98
471.162	2.42
471.62	1.63
472.078	0.77
472.536	-0.21
472.994	1.1
473.452	0.52
473.91	1.82
474.368	0.15
474.826	1.55
475.283	2.49
475.741	0.28
476.199	1.38
476.656	0.64
477.114	2.17
477.572	0.81
478.029	-0.97
478.487	1.79
478.944	0.64
479.402	1.41
479.859	2.42
480.317	0.95
480.774	1.23
481.232	0.41
481.689	1.82
482.146	1.89
482.604	0.45
483.061	0.71
483.518	0.73
483.975	1.09
484.433	0.88
484.89	2.14
485.347	1.8
485.804	1.1
486.261	1.67
486.718	-0.4
487.175	2.39
487.632	-0.29
488.089	0.09
488.546	1.42
489.003	0.78
489.46	2
489.917	-0.29
490.373	0.03
490.83	1.04
491.287	1.62
491.744	1.74
492.2	0.47
492.657	-0.22
493.114	0.16
493.57	1.21
494.027	-0.47
494.484	1.51
494.94	-0.49
495.397	0.09
495.853	2.04
496.31	0.59
496.766	1.37
497.222	1.31
497.679	1.25
498.135	-0.22
498.591	0.28
499.048	0.03
499.504	1.71
499.96	0.57
500.416	1.09
500.872	0.32
501.329	1.1
501.785	0.03
502.241	0.83
502.697	1.83
503.153	0.87
503.609	0.71
504.065	0.43
504.521	0.67
504.977	0.85
505.432	-0.08
505.888	0.81
506.344	0.91
506.8	0.99
507.256	1.07
507.711	0.39
508.167	0.32
508.623	1.36
509.078	1.43
509.534	0.5
509.99	1.44
510.445	-0.17
510.901	1.45
511.356	0.9
511.812	1.42
512.267	0.58
512.722	1.15
513.178	1.36
513.633	0.87
514.089	0.68
514.544	1.74
514.999	0.81
515.454	0.46
515.91	1.39
516.365	0.84
516.82	0.54
517.275	0.89
517.73	0.79
518.185	1.15
518.64	1.21
519.095	1.14
519.55	1.44
520.005	0.06
520.46	1.03
520.915	1.32
521.37	2.21
521.825	1.6
522.28	0.86
522.734	1.52
523.189	1.24
523.644	0.57
524.099	1.44
524.553	0.93
525.008	0.86
525.462	0.41
525.917	0.97
526.372	1.7
526.826	0.97
527.281	1.09
527.735	1.47
528.19	0.82
528.644	0.92
529.098	0.93
529.553	0.54
530.007	0.47
530.461	0.88
530.916	1.79
531.37	1.51
531.824	0.21
532.278	1.01
532.732	2.19
533.186	0.43
533.641	0.02
534.095	0.82
534.549	1.73
535.003	1.13
535.457	1.01
535.911	1.38
536.365	1.42
536.818	-0.12
537.272	2
537.726	0.07
538.18	1
538.634	0.77
539.087	1.25
539.541	1.22
539.995	0.73
540.449	2.28
540.902	0.66
541.356	2.27
541.809	0.31
542.263	1.12
542.716	2.13
543.17	0.7
543.623	0.77
544.077	0.68
544.53	1.45
544.984	1.9
545.437	0.87
545.89	1.03
546.344	1.71
546.797	1.06
547.25	1.25
547.703	1.53
548.157	0.75
548.61	0.83
549.063	0.71
549.516	1.3
549.969	0.41
550.422	0.45
550.875	1.06
551.328	0.89
551.781	0.6
552.234	0.53
552.687	0.57
553.14	0.86
553.592	0.97
554.045	1.61
554.498	0.42
554.951	0.7
555.404	1.02
555.856	1.38
556.309	0.6
556.762	1.4
557.214	0.97
557.667	1.57
558.119	1.1
558.572	1.16
559.024	1.63
559.477	1.89
559.929	0.24
560.382	0.44
560.834	1.36
561.286	1.28
561.739	1.18
562.191	0.53
562.643	1.35
563.095	1.54
563.548	0.61
564	1.07
564.452	1.4
564.904	1.8
565.356	0.47
565.808	0.85
566.26	1
566.712	1.02
567.164	1.02
567.616	0.79
568.068	0.96
568.52	1.44
568.972	1.15
569.424	1.09
569.876	1.61
570.327	1.18
570.779	1.36
571.231	0.84
571.682	1.46
572.134	1.89
572.586	1.45
573.037	1.42
573.489	0.95
573.941	1.32
574.392	1.3
574.844	0.98
575.295	1.67
575.746	1.39
576.198	1.23
576.649	1.33
577.101	0.91
577.552	1.34
578.003	1.3
578.454	1.29
578.906	1.46
579.357	0.67
579.808	1.28
580.259	1.46
580.71	0.89
581.161	1.19
581.612	1.35
582.064	0.69
582.515	1.13
582.965	1.13
583.416	1.05
583.867	1.35
584.318	1.1
584.769	2.01
585.22	1.32
585.671	0.96
586.122	1.12
586.572	1.38
587.023	1.36
587.474	1.01
587.924	1.24
588.375	0.41
588.826	1.23
589.276	0.94
589.727	0.56
590.177	0.36
590.628	0.61
591.078	1.15
591.529	0.76
591.979	1.2
592.429	0.96
592.88	1.36
593.33	0.68
593.78	0.93
594.231	0.54
594.681	0.82
595.131	0.99
595.581	1.02
596.031	1.28
596.481	1.9
596.932	1.71
597.382	2.17
597.832	1.27
598.282	1.06
598.732	0.81
599.182	1.22
599.632	0.96
600.081	0.86
600.531	1.08
600.981	0.87
601.431	1.81
601.881	1.96
602.33	1.26
602.78	1.39
603.23	1.3
603.679	1.5
604.129	1.08
604.579	1.03
605.028	1.06
605.478	1.99
605.927	1.14
606.377	1.16
606.826	1.27
607.276	1.12
607.725	0.82
608.175	0.88
608.624	1.11
609.073	1.72
609.522	1.29
609.972	1.49
610.421	1.28
610.87	1.33
611.319	1.36
611.768	1.73
612.218	1.3
612.667	0.8
613.116	1.63
613.565	1.16
614.014	0.92
614.463	1.26
614.912	1.07
615.361	0.76
615.81	1.36
616.258	1.33
616.707	1.1
617.156	0.98
617.605	1.16
618.054	1
618.502	1.16
618.951	1.37
619.4	1.11
619.848	1.59
620.297	0.89
620.745	1.46
621.194	0.81
621.642	1.14
622.091	1.01
622.539	1.53
622.988	0.79
623.436	1.34
623.885	0.66
624.333	1.47
624.781	1.33
625.23	1.81
625.678	1.12
626.126	1.84
626.574	1.36
627.022	1.54
627.471	1.03
627.919	1.51
628.367	1.28
628.815	1.73
629.263	1.12
629.711	1.1
630.159	1.01
630.607	1.34
631.055	0.9
631.503	1.11
631.95	1.15
632.398	1.34
632.846	0.53
633.294	1.69
633.742	1.31
634.189	1.21
634.637	1.42
635.085	1.25
635.532	1.29
635.98	1.56
636.427	1.14
636.875	1.48
637.323	2.1
637.77	1.13
638.217	0.91
638.665	1.21
639.112	1.38
639.56	1.03
640.007	1.05
640.454	1.31
640.902	1.24
641.349	1.48
641.796	1.21
642.243	2.03
642.69	1.25
643.138	1.72
643.585	1.33
644.032	1.61
644.479	1.27
644.926	1.23
645.373	1.45
645.82	1.3
646.267	1.27
646.714	0.9
647.161	1.54
647.607	1.53
648.054	1.23
648.501	1.62
648.948	1.32
649.395	1.07
649.841	1.26
650.288	1.09
650.735	1.18
651.181	1.41
651.628	0.9
652.075	1.43
652.521	1.49
652.968	0.93
653.414	1.52
653.861	1.11
654.307	1.27
654.753	1.26
655.2	1.32
655.646	1.42
656.092	1.2
656.539	0.96
656.985	1.35
657.431	1.53
657.877	0.74
658.324	1.43
658.77	1.24
659.216	1.32
659.662	1.49
660.108	1.24
660.554	1.46
661	1.25
661.446	1.5
661.892	1.39
662.338	1.14
662.784	1.29
663.23	1.54
663.675	1.31
664.121	1.75
664.567	1.16
665.013	1.08
665.458	1.33
665.904	1.43
666.35	1.3
666.795	1.1
667.241	1.33
667.687	1.18
668.132	1.38
668.578	1.57
669.023	1.2
669.469	1.37
669.914	1.44
670.359	1.45
670.805	1.4
671.25	1.32
671.695	1.08
672.141	1.32
672.586	1.47
673.031	1.08
673.476	1.45
673.922	1.38
674.367	1.42
674.812	1.4
675.257	1.6
675.702	1.87
676.147	1.64
676.592	1.33
677.037	1.36
677.482	1.01
677.927	1.17
678.372	1.5
678.817	1.28
679.261	1.1
679.706	1.32
680.151	1.67
680.596	1.1
681.04	1.3
681.485	0.91
681.93	1.33
682.374	1.13
682.819	1.29
683.264	1.27
683.708	1.39
684.153	1.57
684.597	1.29
685.042	1.68
685.486	1.23
685.93	1.65
686.375	0.97
686.819	1.36
687.263	1.22
687.708	1.14
688.152	1.41
688.596	1.27
689.04	1.54
689.485	1.53
689.929	1.53
690.373	1.49
690.817	1.82
691.261	1.24
691.705	1.39
692.149	1.13
692.593	1.24
693.037	1.47
693.481	1.58
693.925	1.17
694.369	1.38
694.812	1.34
695.256	1.18
695.7	1.66
696.144	1.18
696.587	1.28
697.031	1.1
697.475	1.72
697.918	1.29
698.362	1.49
698.806	1.49
699.249	1.44
699.693	1.12
700.136	1.35
700.58	1.23
701.023	1.24
701.466	1.41
701.91	1.36
702.353	1.44
702.796	1.22
703.24	1.32
703.683	1.4
704.126	1.49
704.569	1.45
705.013	1.22
705.456	1.09
705.899	1.17
706.342	1.16
706.785	1.66
707.228	1.38
707.671	1.49
708.114	1.3
708.557	1.32
709	1.2
709.443	1.5
709.886	1.57
710.328	1.6
710.771	1.59
711.214	1.25
711.657	1.42
712.099	1.33
712.542	1.35
712.985	1.69
713.427	1.33
713.87	1.35
714.313	0.95
714.755	1.39
715.198	1.21
715.64	1.38
716.083	1.48
716.525	1.39
716.967	1.58
717.41	1.67
717.852	1.47
718.295	1.28
718.737	1.4
719.179	1.42
719.621	1.18
720.063	1.47
720.506	1.72
720.948	1.38
721.39	1.35
721.832	1.5
722.274	1.62
722.716	1.42
723.158	1.4
723.6	1.55
724.042	1.46
724.484	1.5
724.926	1.73
725.368	1.43
725.81	1.01
726.251	1.36
726.693	1.26
727.135	1.67
727.577	1.65
728.018	1
728.46	1
728.902	1.37
729.343	1.24
729.785	1.47
730.226	1.39
730.668	1.36
731.109	1.57
731.551	1.51
731.992	1.36
732.434	1.32
732.875	1.37
733.316	1.3
733.758	1.49
734.199	1.4
734.64	1.33
735.081	1.41
735.523	1.18
735.964	1.5
736.405	1.42
736.846	1.59
737.287	1.36
737.728	1.38
738.169	1.25
738.61	1.26
739.051	1.45
739.492	1.42
739.933	1.27
740.374	1.42
740.815	1.64
741.256	1.4
741.696	1.53
742.137	1.37
742.578	1.58
743.019	1.48
743.459	1.27
743.9	1.42
744.341	1.35
744.781	1.31
745.222	1.59
745.662	1.44
746.103	1.49
746.543	1.38
746.984	1.77
747.424	1.45
747.865	1.32
748.305	1.4
748.745	1.42
749.186	1.34
749.626	1.68
750.066	1.64
750.506	1.1
750.947	1.69
751.387	1.65
751.827	1.71
752.267	1.58
752.707	1.57
753.147	1.35
753.587	1.57
754.027	1.58
754.467	1.7
754.907	1.14
755.347	1.3
755.787	1.25
756.227	1.42
756.667	1.35
757.107	1.35
757.546	1.34
757.986	1.65
758.426	1.33
758.865	1.61
759.305	1.53
759.745	1.6
760.184	1.56
760.624	1.19
761.063	1.53
761.503	1.46
761.943	1.42
762.382	1.64
762.821	1.78
763.261	1.66
763.7	1.53
764.14	1.33
764.579	1.45
765.018	1.64
765.457	1.35
765.897	1.51
766.336	1.69
766.775	1.51
767.214	1.35
767.653	1.43
768.092	1.65
768.531	1.54
768.97	1.49
769.409	1.47
769.848	1.37
770.287	1.53
770.726	1.59
771.165	1.55
771.604	1.46
772.043	1.25
772.482	1.8
772.92	1.67
773.359	1.35
773.798	1.71
774.237	1.37
774.675	1.52
775.114	1.3
775.553	1.8
775.991	1.6
776.43	1.55
776.868	1.47
777.307	1.19
777.745	1.65
778.184	1.66
778.622	1.29
779.06	1.73
779.499	1.52
779.937	1.8
780.375	1.47
780.814	1.66
781.252	1.61
781.69	1.42
782.128	1.87
782.566	1.62
783.004	1.4
783.443	1.67
783.881	1.8
784.319	1.64
784.757	1.68
785.195	1.59
785.633	1.51
786.071	1.37
786.508	1.54
786.946	1.41
787.384	1.38
787.822	1.43
788.26	1.69
788.697	1.74
789.135	1.65
789.573	1.45
790.011	1.68
790.448	1.54
790.886	1.56
791.323	1.8
791.761	1.54
792.198	1.46
792.636	1.64
793.073	1.68
793.511	1.6
793.948	1.64
794.386	1.56
794.823	1.74
795.26	1.82
795.698	1.62
796.135	1.73
796.572	1.78
797.009	1.63
797.446	1.71
797.884	1.46
798.321	1.49
798.758	1.68
799.195	1.33
799.632	1.6
800.069	1.78
800.506	1.51
800.943	1.79
801.38	1.68
801.817	1.7
802.254	1.78
802.69	1.55
803.127	1.67
803.564	1.55
804.001	1.7
804.438	1.83
804.874	1.6
805.311	1.74
805.748	1.59
806.184	1.4
806.621	1.53
807.057	1.81
807.494	1.59
807.93	1.87
808.367	1.64
808.803	1.53
809.24	1.7
809.676	1.87
810.112	1.75
810.549	1.99
810.985	1.69
811.421	1.61
811.857	1.73
812.294	1.75
812.73	1.74
813.166	1.71
813.602	1.62
814.038	1.58
814.474	1.79
814.91	1.55
815.346	1.59
815.782	1.79
816.218	1.78
816.654	1.87
817.09	1.67
817.526	1.62
817.962	1.74
818.398	1.85
818.833	1.66
819.269	1.78
819.705	1.66
820.141	1.62
820.576	1.85
821.012	1.78
821.447	1.73
821.883	1.8
822.319	1.86
822.754	1.73
823.19	1.62
823.625	1.68
824.061	1.93
824.496	1.78
824.931	1.8
825.367	1.8
825.802	1.73
826.237	1.82
826.673	1.82
827.108	1.8
827.543	1.56
827.978	1.88
828.413	1.66
828.849	1.85
829.284	1.8
829.719	1.72
830.154	1.61
830.589	1.89
831.024	1.57
831.459	1.83
831.894	1.7
832.329	1.8
832.763	1.85
833.198	1.74
833.633	1.83
834.068	1.81
834.503	1.67
834.937	1.82
835.372	1.72
835.807	2.02
836.241	1.8
836.676	1.84
837.111	1.92
837.545	1.84
837.98	1.91
838.414	1.91
838.849	1.72
839.283	1.78
839.717	2.02
840.152	1.65
840.586	1.9
841.021	1.95
841.455	1.77
841.889	1.89
842.323	1.91
842.758	1.86
843.192	1.83
843.626	1.99
844.06	1.83
844.494	1.67
844.928	1.93
845.362	1.81
