Data from JCR0011_WhiteVentral_Reflection_00001.txt Node
Date: Thu Jul 23 13:34:15 ACST 2020
User: Stacey Dix
Spectrometer: MAYP113282
Scans to average: 1
Trigger mode: 0
Integration Time (sec): 1.000000E-1
Electric dark correction enabled: true
Boxcar width: 0
XAxis mode: Wavelengths
Number of Pixels in Spectrum: 2068
>>>>>Begin Spectral Data<<<<<
198.791	-646.87
199.266	-114.71
199.74	-28.12
200.215	-281.25
200.69	76.58
201.164	79.6
201.639	53.99
202.114	55.57
202.588	57.47
203.063	55.19
203.537	46.76
204.012	50.1
204.486	49.49
204.961	47.88
205.435	43.19
205.909	51.75
206.384	50.09
206.858	55.84
207.332	50.08
207.807	60.62
208.281	56.5
208.755	48.05
209.229	38.76
209.703	50.34
210.177	47.15
210.651	47.33
211.126	53.31
211.6	51.85
212.074	51.37
212.548	36.63
213.021	41.91
213.495	38.68
213.969	43.81
214.443	39.61
214.917	44.27
215.391	48.73
215.864	40.85
216.338	51.24
216.812	38.89
217.286	38.91
217.759	32.85
218.233	39.68
218.706	29.7
219.18	40.16
219.654	35.19
220.127	36.89
220.6	31.38
221.074	35.33
221.547	26.7
222.021	32.41
222.494	31.22
222.967	28.78
223.441	29.64
223.914	29.74
224.387	25.61
224.86	26.81
225.334	27.48
225.807	25.31
226.28	26.67
226.753	23.63
227.226	22.81
227.699	21.57
228.172	22.57
228.645	22.05
229.118	20.29
229.591	21.32
230.064	19.21
230.537	18.82
231.01	20.95
231.482	20.86
231.955	20.17
232.428	18.44
232.901	18.7
233.373	18.04
233.846	18.49
234.319	17.3
234.791	17.61
235.264	17.06
235.736	17.04
236.209	16.42
236.681	17.81
237.154	17.04
237.626	16.72
238.099	16.64
238.571	15.51
239.044	18.05
239.516	15.43
239.988	15.8
240.46	16.46
240.933	16.12
241.405	16.34
241.877	15.17
242.349	16.38
242.821	14.71
243.293	14.98
243.765	15.05
244.237	16.69
244.71	15.69
245.181	15.36
245.653	14.77
246.125	15.39
246.597	14.43
247.069	14.79
247.541	14.88
248.013	15.02
248.485	15.45
248.956	14.31
249.428	14.19
249.9	14.77
250.371	14.14
250.843	13.89
251.315	13.11
251.786	13.5
252.258	14.12
252.729	14.28
253.201	13.82
253.672	13.6
254.144	12.54
254.615	12.96
255.086	13.07
255.558	12.88
256.029	13.1
256.5	13.41
256.972	13.4
257.443	12.94
257.914	12.91
258.385	13.08
258.856	13.19
259.327	13.12
259.799	13
260.27	13.16
260.741	13.18
261.212	12.96
261.683	13.72
262.154	12.88
262.624	12.51
263.095	13.47
263.566	13.25
264.037	12.91
264.508	13.03
264.979	12.93
265.449	13.64
265.92	13.19
266.391	13.36
266.861	13.52
267.332	13.12
267.803	13.05
268.273	13.13
268.744	12.93
269.214	13.05
269.685	13.2
270.155	13
270.626	13.47
271.096	12.84
271.566	13.23
272.037	12.79
272.507	12.71
272.977	12.96
273.448	13.39
273.918	12.82
274.388	12.82
274.858	13.45
275.328	13.28
275.798	13.39
276.268	12.46
276.738	13.07
277.208	13.1
277.678	13.2
278.148	13.46
278.618	13.78
279.088	13.29
279.558	12.13
280.028	14.01
280.498	12.89
280.968	13.16
281.437	13.54
281.907	13.25
282.377	12.89
282.847	12.55
283.316	12.48
283.786	12.66
284.255	13.08
284.725	12.86
285.194	12.87
285.664	12.64
286.133	13.12
286.603	12.77
287.072	12.88
287.542	12.9
288.011	12.79
288.48	12.89
288.95	12.47
289.419	12.89
289.888	12.74
290.357	13.07
290.827	13.32
291.296	13.42
291.765	12.44
292.234	12.79
292.703	13.15
293.172	13.48
293.641	12.78
294.11	13.04
294.579	13.18
295.048	13.05
295.517	13.93
295.986	13.33
296.455	13.77
296.923	13.44
297.392	13.55
297.861	13.08
298.33	13.24
298.798	13.62
299.267	13.68
299.736	14.15
300.204	13.2
300.673	13.92
301.141	13.74
301.61	14.3
302.079	14.46
302.547	13.53
303.015	13.85
303.484	13.86
303.952	13.97
304.421	14.61
304.889	13.8
305.357	14.8
305.825	14.98
306.294	14.07
306.762	15.03
307.23	14.7
307.698	13.98
308.166	14.92
308.634	14.4
309.103	15.2
309.571	14.84
310.039	14.51
310.507	14.11
310.975	15.02
311.442	14.75
311.91	14.36
312.378	15.59
312.846	14.44
313.314	14.94
313.782	14.71
314.249	15.46
314.717	15.42
315.185	15.06
315.652	15.58
316.12	15.42
316.588	15.11
317.055	15.67
317.523	14.36
317.99	14.98
318.458	15.81
318.925	15.34
319.393	15.44
319.86	14.6
320.328	14.91
320.795	15.28
321.262	16.36
321.73	15.54
322.197	16.48
322.664	15.87
323.131	16
323.598	16.74
324.066	17.17
324.533	16.22
325	16.75
325.467	17.65
325.934	18.4
326.401	18.64
326.868	18.79
327.335	18.57
327.802	19.98
328.269	19.72
328.735	20.01
329.202	20.92
329.669	20.94
330.136	21.66
330.603	21.94
331.069	22.16
331.536	22.33
332.003	23.21
332.469	23.6
332.936	23.36
333.402	23.36
333.869	24.63
334.336	24.98
334.802	24.19
335.268	25.03
335.735	25.24
336.201	26.05
336.668	25.62
337.134	26.11
337.6	26.52
338.067	25.27
338.533	25.09
338.999	24.82
339.465	25.84
339.931	25.49
340.398	25.93
340.864	26.11
341.33	25.1
341.796	25.78
342.262	26.02
342.728	25.81
343.194	26.47
343.66	26.06
344.126	26.78
344.592	26.14
345.057	25.95
345.523	26.58
345.989	26.03
346.455	25.63
346.921	25.26
347.386	25.16
347.852	26.32
348.318	25.24
348.783	25.56
349.249	24.88
349.714	26.21
350.18	26.13
350.645	26.85
351.111	26.09
351.576	25.76
352.042	25.84
352.507	25.98
352.973	26.3
353.438	26.32
353.903	26.06
354.369	24.92
354.834	25.55
355.299	25.73
355.764	26.23
356.229	25.98
356.695	25.45
357.16	25.25
357.625	25.44
358.09	26.29
358.555	26.39
359.02	26.61
359.485	25.32
359.95	26.73
360.415	26.16
360.879	26.15
361.344	26.59
361.809	26.19
362.274	26.48
362.739	26.37
363.203	26.11
363.668	26.75
364.133	26.24
364.597	27.05
365.062	25.7
365.527	26.1
365.991	26.93
366.456	26.18
366.92	25.95
367.385	27.1
367.849	26.63
368.314	26.88
368.778	27.39
369.242	27.27
369.707	26.95
370.171	26.6
370.635	27.59
371.1	27.03
371.564	26.24
372.028	27.88
372.492	26.44
372.956	26.46
373.42	27.64
373.884	26.91
374.348	26.22
374.812	27.13
375.276	26.85
375.74	28.08
376.204	27.24
376.668	27.55
377.132	27.95
377.596	26.9
378.06	27.99
378.524	27.7
378.987	27.61
379.451	27.91
379.915	28.95
380.378	27.23
380.842	28.33
381.306	27.99
381.769	27.44
382.233	28.21
382.696	27
383.16	28.56
383.623	27.63
384.087	28.77
384.55	28.12
385.014	27.91
385.477	27.89
385.94	28.49
386.404	28.42
386.867	28.15
387.33	28.01
387.793	28.83
388.256	27.76
388.72	28.08
389.183	27.69
389.646	28.45
390.109	28.43
390.572	28.6
391.035	27.96
391.498	28.43
391.961	28.19
392.424	28.55
392.887	29.14
393.35	29.34
393.812	28.64
394.275	28.29
394.738	28.67
395.201	27.85
395.664	28.76
396.126	28.25
396.589	28.68
397.052	28.69
397.514	29.8
397.977	28.65
398.439	30.23
398.902	29.23
399.364	28.47
399.827	29.98
400.289	29.6
400.752	28.75
401.214	28.79
401.676	28.62
402.139	28.95
402.601	29.51
403.063	28.16
403.525	28.92
403.988	28.91
404.45	29.29
404.912	29.21
405.374	29.29
405.836	29.49
406.298	28.64
406.76	29.21
407.222	28.51
407.684	28.44
408.146	27.89
408.608	29.53
409.07	28.52
409.532	28.4
409.994	28.29
410.456	29.67
410.917	29.97
411.379	29.35
411.841	29.24
412.303	28.19
412.764	29.38
413.226	28.85
413.687	29.68
414.149	29.48
414.611	29.05
415.072	29.48
415.534	29.44
415.995	29.94
416.457	29.44
416.918	30.12
417.379	29.01
417.841	29.21
418.302	29.36
418.763	29.92
419.225	30.46
419.686	29.97
420.147	29.87
420.608	30.02
421.069	30.48
421.53	30.42
421.991	30.27
422.453	29.75
422.914	30.58
423.375	29.82
423.836	30.34
424.297	30.17
424.757	30.2
425.218	30.01
425.679	30.74
426.14	30.53
426.601	29.49
427.062	30.34
427.522	31.94
427.983	32.19
428.444	30.35
428.904	31.16
429.365	30.93
429.826	32.37
430.286	31.6
430.747	31.14
431.207	31.47
431.668	32.33
432.128	31.44
432.589	30.71
433.049	31.34
433.509	31.65
433.97	32.12
434.43	32.15
434.89	31.96
435.351	30.6
435.811	32.02
436.271	30.73
436.731	31.07
437.191	31.96
437.651	31.45
438.112	31.95
438.572	31.53
439.032	30.9
439.492	30.72
439.952	32.02
440.412	31.92
440.871	32.75
441.331	30.62
441.791	31.16
442.251	31.27
442.711	31.18
443.171	31.45
443.63	30.72
444.09	30.77
444.55	31.92
445.009	31.03
445.469	31.68
445.929	32.27
446.388	31.43
446.848	31.89
447.307	31.51
447.767	31.93
448.226	32.38
448.686	31.63
449.145	31.37
449.604	31.42
450.064	32.34
450.523	32.01
450.982	32.37
451.442	31.25
451.901	32.07
452.36	30.93
452.819	32.2
453.278	30.52
453.737	31.22
454.197	32.02
454.656	31.97
455.115	31.97
455.574	31.96
456.033	32.99
456.492	32.71
456.95	31.9
457.409	32.7
457.868	31.35
458.327	33.27
458.786	34.17
459.245	32.43
459.703	32.32
460.162	32.99
460.621	32.4
461.079	31.81
461.538	31.87
461.997	32.66
462.455	31.93
462.914	34.22
463.372	32.29
463.831	33.24
464.289	32.28
464.748	33.55
465.206	32.74
465.664	32.64
466.123	33.19
466.581	32.59
467.039	32.93
467.497	33.72
467.956	32.47
468.414	34.38
468.872	35.28
469.33	33.23
469.788	33.5
470.246	34.11
470.704	34.27
471.162	33.01
471.62	34.45
472.078	33.56
472.536	34.65
472.994	35.1
473.452	32.88
473.91	33.68
474.368	33.08
474.826	33.01
475.283	35.02
475.741	33.56
476.199	33.83
476.656	34.12
477.114	33.76
477.572	34.76
478.029	35.07
478.487	34.24
478.944	35.57
479.402	33.57
479.859	33.68
480.317	33.88
480.774	33.96
481.232	34.97
481.689	33.62
482.146	34.02
482.604	33.31
483.061	35.27
483.518	33.26
483.975	33.57
484.433	33.69
484.89	34.51
485.347	34.37
485.804	35.12
486.261	34.82
486.718	33.84
487.175	34.54
487.632	35.13
488.089	36.21
488.546	33.49
489.003	34.82
489.46	34.48
489.917	35.29
490.373	33.86
490.83	34.86
491.287	35.95
491.744	34.11
492.2	35.04
492.657	35.49
493.114	34.2
493.57	33.65
494.027	34.39
494.484	35.98
494.94	34.05
495.397	34.62
495.853	35.01
496.31	34.71
496.766	35.62
497.222	33.42
497.679	34.72
498.135	34.82
498.591	34.05
499.048	35.43
499.504	33.5
499.96	34.16
500.416	34.71
500.872	35.33
501.329	34.56
501.785	34.37
502.241	35.01
502.697	35.25
503.153	33.22
503.609	35.04
504.065	35.77
504.521	33.89
504.977	35.54
505.432	35.4
505.888	35.55
506.344	33.58
506.8	35.23
507.256	35.05
507.711	34.93
508.167	35
508.623	34.77
509.078	35.46
509.534	34.74
509.99	35.17
510.445	35.12
510.901	34.56
511.356	34.08
511.812	35.03
512.267	34.48
512.722	34.24
513.178	34.79
513.633	34.28
514.089	34.72
514.544	34.5
514.999	34.81
515.454	35.27
515.91	34.08
516.365	35.59
516.82	35.52
517.275	34.43
517.73	35.83
518.185	33.72
518.64	33.96
519.095	34.13
519.55	34.86
520.005	34.57
520.46	34.04
520.915	34.69
521.37	34.76
521.825	34.17
522.28	33.93
522.734	34.39
523.189	34.64
523.644	34.42
524.099	34.59
524.553	35
525.008	35.86
525.462	34.1
525.917	34.98
526.372	34.53
526.826	34.68
527.281	34.89
527.735	35.93
528.19	34.74
528.644	35.2
529.098	35.33
529.553	36.37
530.007	35.11
530.461	35.22
530.916	35.6
531.37	36.03
531.824	33.88
532.278	35.05
532.732	35.8
533.186	34.29
533.641	35.06
534.095	34.61
534.549	35.65
535.003	35.51
535.457	34.93
535.911	35.86
536.365	36.53
536.818	34.41
537.272	34.19
537.726	33.84
538.18	35.75
538.634	34.29
539.087	35.63
539.541	36.12
539.995	35.71
540.449	34.68
540.902	36.1
541.356	35.2
541.809	36.56
542.263	35.26
542.716	35.54
543.17	34.82
543.623	36.14
544.077	36.14
544.53	35.69
544.984	35.54
545.437	35.37
545.89	35.96
546.344	34.77
546.797	34.61
547.25	33.77
547.703	34.13
548.157	35.42
548.61	35.43
549.063	35.65
549.516	35.8
549.969	34.05
550.422	35.99
550.875	35.11
551.328	35.37
551.781	35.16
552.234	35.45
552.687	36.82
553.14	35.9
553.592	34.99
554.045	35.31
554.498	36.37
554.951	36.23
555.404	35.52
555.856	35.4
556.309	35.78
556.762	35.51
557.214	35.93
557.667	35.58
558.119	35.44
558.572	35.32
559.024	35.97
559.477	35.48
559.929	36.14
560.382	35.47
560.834	34.82
561.286	35.07
561.739	35.29
562.191	34.06
562.643	35.16
563.095	35.79
563.548	35.37
564	35.98
564.452	35.84
564.904	35.28
565.356	34.6
565.808	35.07
566.26	34.95
566.712	34.73
567.164	35.45
567.616	36.32
568.068	35.85
568.52	34.98
568.972	35.01
569.424	35.01
569.876	35.59
570.327	34.69
570.779	35.08
571.231	35.19
571.682	35.5
572.134	35.28
572.586	34.94
573.037	34.92
573.489	34.8
573.941	35.52
574.392	35.79
574.844	35.34
575.295	35.28
575.746	35.42
576.198	36.47
576.649	35.41
577.101	34.83
577.552	34.59
578.003	35.52
578.454	35.13
578.906	34.97
579.357	34.94
579.808	35.56
580.259	34.8
580.71	35.32
581.161	35.87
581.612	35.82
582.064	34.67
582.515	35.22
582.965	35.63
583.416	34.87
583.867	35.22
584.318	35.98
584.769	35.26
585.22	35.01
585.671	35.49
586.122	34.75
586.572	35.38
587.023	35.71
587.474	36.11
587.924	35.58
588.375	35.06
588.826	35.48
589.276	35.83
589.727	34.91
590.177	35.44
590.628	35.26
591.078	35.68
591.529	35.38
591.979	34.74
592.429	35.56
592.88	35.53
593.33	35.73
593.78	36.24
594.231	35.42
594.681	35.17
595.131	35.53
595.581	34.68
596.031	35.54
596.481	34.97
596.932	36.32
597.382	35.38
597.832	34.61
598.282	36.49
598.732	35
599.182	34.98
599.632	35.75
600.081	35.83
600.531	35.2
600.981	34.86
601.431	35.65
601.881	34.98
602.33	35.27
602.78	35.26
603.23	35.09
603.679	35.42
604.129	35.54
604.579	34.91
605.028	34.96
605.478	35.45
605.927	35.82
606.377	36.17
606.826	35.67
607.276	35.12
607.725	35.59
608.175	35.31
608.624	34.99
609.073	36.04
609.522	35.37
609.972	35.67
610.421	35.15
610.87	35.31
611.319	35.25
611.768	36.03
612.218	36.38
612.667	36.1
613.116	35.17
613.565	35.73
614.014	34.53
614.463	36.22
614.912	35.97
615.361	34.92
615.81	35.57
616.258	35.73
616.707	35.29
617.156	35.43
617.605	34.71
618.054	35.41
618.502	35.25
618.951	35.23
619.4	35.27
619.848	35.17
620.297	35.03
620.745	35.19
621.194	34.92
621.642	35.04
622.091	35.5
622.539	35.21
622.988	35.39
623.436	34.59
623.885	34.65
624.333	34.6
624.781	35.04
625.23	34.75
625.678	35.2
626.126	34.86
626.574	34.34
627.022	34.92
627.471	35.38
627.919	34.75
628.367	35.04
628.815	35.26
629.263	35.58
629.711	34.64
630.159	35.09
630.607	34.72
631.055	35.49
631.503	34.06
631.95	34.72
632.398	34.67
632.846	34.71
633.294	35.44
633.742	34.9
634.189	35.55
634.637	35.56
635.085	34.77
635.532	35.35
635.98	35.08
636.427	34.73
636.875	35
637.323	35.61
637.77	35.79
638.217	34.92
638.665	34.89
639.112	35.22
639.56	34.59
640.007	35.59
640.454	34.3
640.902	35.2
641.349	35.82
641.796	35.55
642.243	34.88
642.69	35.7
643.138	36.18
643.585	35.14
644.032	34.69
644.479	35.23
644.926	35.28
645.373	35.31
645.82	35.09
646.267	35.11
646.714	34.81
647.161	35.04
647.607	34.76
648.054	35.42
648.501	34.84
648.948	34.76
649.395	34.94
649.841	35.51
650.288	34.47
650.735	35.05
651.181	34.67
651.628	35.35
652.075	35.22
652.521	34.52
652.968	35
653.414	34.91
653.861	35.46
654.307	35.15
654.753	34.78
655.2	35.57
655.646	34.62
656.092	34.87
656.539	35.34
656.985	34.8
657.431	35.19
657.877	34.82
658.324	34.88
658.77	35.06
659.216	35.01
659.662	35.05
660.108	35.15
660.554	34.78
661	34.88
661.446	34.52
661.892	34.62
662.338	34.93
662.784	35.18
663.23	34.55
663.675	36.19
664.121	34.94
664.567	34.82
665.013	35.08
665.458	34.85
665.904	34.68
666.35	35
666.795	35.35
667.241	34.6
667.687	35.11
668.132	34.95
668.578	35.28
669.023	34.37
669.469	34.69
669.914	34.84
670.359	35.01
670.805	35.13
671.25	35.34
671.695	34.89
672.141	34.83
672.586	35.3
673.031	34.81
673.476	35
673.922	35.4
674.367	34.89
674.812	35.21
675.257	34.81
675.702	34.96
676.147	35.05
676.592	34.71
677.037	34.63
677.482	34.87
677.927	34.84
678.372	34.86
678.817	35.15
679.261	35.72
679.706	34.97
680.151	34.28
680.596	34.31
681.04	34.36
681.485	34.43
681.93	35.14
682.374	34.72
682.819	34.74
683.264	35.1
683.708	34.83
684.153	35.02
684.597	35.18
685.042	35.09
685.486	35.2
685.93	34.88
686.375	34.77
686.819	34.86
687.263	35.4
687.708	34.35
688.152	34.46
688.596	34.4
689.04	34.87
689.485	35.32
689.929	35.42
690.373	35.06
690.817	34.76
691.261	34.66
691.705	34.08
692.149	34.58
692.593	35.18
693.037	34.99
693.481	34.93
693.925	34.65
694.369	34.63
694.812	34.42
695.256	34.67
695.7	34.71
696.144	34.82
696.587	34.91
697.031	34.03
697.475	34.42
697.918	34.81
698.362	35
698.806	34.52
699.249	34.63
699.693	34.92
700.136	34.95
700.58	35.07
701.023	35.41
701.466	35.01
701.91	35.17
702.353	34.91
702.796	34.8
703.24	35.09
703.683	34.96
704.126	35.36
704.569	34.59
705.013	34.5
705.456	35.11
705.899	34.23
706.342	34.91
706.785	33.89
707.228	34.22
707.671	34.67
708.114	34.23
708.557	34.39
709	34.85
709.443	33.7
709.886	34.03
710.328	34.33
710.771	33.89
711.214	34.29
711.657	34.26
712.099	33.89
712.542	35.01
712.985	35.02
713.427	34.18
713.87	34.37
714.313	34.52
714.755	34.15
715.198	34.44
715.64	34.51
716.083	34.54
716.525	34.41
716.967	34.11
717.41	34.84
717.852	34.9
718.295	34.64
718.737	35.18
719.179	34.82
719.621	34.75
720.063	34.7
720.506	34.55
720.948	34.79
721.39	34.8
721.832	34.68
722.274	34.39
722.716	34.75
723.158	34.33
723.6	33.75
724.042	34.64
724.484	33.98
724.926	34.24
725.368	33.99
725.81	33.94
726.251	34.55
726.693	34.52
727.135	34.28
727.577	35.07
728.018	34.78
728.46	34.48
728.902	34.36
729.343	34.36
729.785	34.72
730.226	34.54
730.668	34.29
731.109	34.87
731.551	35.1
731.992	34.75
732.434	34.04
732.875	34.79
733.316	34.83
733.758	34.83
734.199	34.2
734.64	34.63
735.081	34.09
735.523	34.76
735.964	34.3
736.405	34.94
736.846	34.27
737.287	34.14
737.728	33.83
738.169	34.33
738.61	34.57
739.051	34.36
739.492	34.37
739.933	34.02
740.374	34.26
740.815	34.36
741.256	34.74
741.696	34.12
742.137	33.86
742.578	34.43
743.019	33.72
743.459	34.48
743.9	33.75
744.341	33.94
744.781	34.68
745.222	34.22
745.662	33.75
746.103	33.46
746.543	34.01
746.984	34.73
747.424	33.77
747.865	33.61
748.305	33.67
748.745	33.6
749.186	34.74
749.626	33.6
750.066	34.02
750.506	34.82
750.947	34.15
751.387	33.77
751.827	34.51
752.267	34.46
752.707	34.28
753.147	34.41
753.587	34.66
754.027	34.64
754.467	34.25
754.907	34.41
755.347	34.23
755.787	34.29
756.227	33.76
756.667	34.33
757.107	34.36
757.546	34.3
757.986	34.24
758.426	33.4
758.865	34.33
759.305	34.42
759.745	33.83
760.184	33.75
760.624	34.63
761.063	33.81
761.503	34.39
761.943	33.95
762.382	34.39
762.821	33.61
763.261	34.11
763.7	34.56
764.14	34.25
764.579	34.47
765.018	34.2
765.457	33.72
765.897	33.94
766.336	34.34
766.775	34.41
767.214	34.48
767.653	33.78
768.092	34.07
768.531	34.3
768.97	34.49
769.409	34.39
769.848	33.78
770.287	33.89
770.726	34.24
771.165	34.77
771.604	35.07
772.043	33.91
772.482	33.95
772.92	34.5
773.359	34.8
773.798	34.1
774.237	34.29
774.675	34.44
775.114	35.01
775.553	34.47
775.991	34.29
776.43	33.87
776.868	33.53
777.307	34.39
777.745	33.5
778.184	34.11
778.622	33.93
779.06	33.69
779.499	33.8
779.937	34.07
780.375	33.84
780.814	34.22
781.252	33.48
781.69	33.27
782.128	33.63
782.566	33.06
783.004	33.78
783.443	33.68
783.881	33.69
784.319	33.97
784.757	33.76
785.195	33.57
785.633	33.85
786.071	33.91
786.508	33.85
786.946	33.89
787.384	33.63
787.822	33.92
788.26	33.73
788.697	33.84
789.135	33.78
789.573	34.11
790.011	33.69
790.448	33.92
790.886	33.73
791.323	34.06
791.761	33.71
792.198	33.64
792.636	34.14
793.073	33.82
793.511	34.04
793.948	34.08
794.386	34.16
794.823	34.16
795.26	34.25
795.698	34.1
796.135	34.1
796.572	33.75
797.009	33.99
797.446	33.68
797.884	33.97
798.321	34.06
798.758	33.69
799.195	33.62
799.632	34.2
800.069	33.99
800.506	34.2
800.943	34.09
801.38	33.83
801.817	33.84
802.254	33.75
802.69	33.49
803.127	33.9
803.564	33.81
804.001	33.62
804.438	33.76
