Data from JCR0008_YellowVentral_Reflection_00001.txt Node
Date: Wed Jul 22 16:02:17 ACST 2020
User: Stacey Dix
Spectrometer: MAYP113282
Scans to average: 1
Trigger mode: 0
Integration Time (sec): 1.000000E-1
Electric dark correction enabled: true
Boxcar width: 0
XAxis mode: Wavelengths
Number of Pixels in Spectrum: 2068
>>>>>Begin Spectral Data<<<<<
198.791	-264
199.266	157.89
199.74	104.35
200.215	168
200.69	73.55
201.164	29.66
201.639	39.65
202.114	75.24
202.588	51.1
203.063	81.71
203.537	48.08
204.012	63.24
204.486	55.52
204.961	36.57
205.435	37.41
205.909	41.38
206.384	72
206.858	23.49
207.332	60.82
207.807	52.17
208.281	68.65
208.755	85.5
209.229	66.08
209.703	41.01
210.177	36.66
210.651	46.44
211.126	57.06
211.6	50.13
212.074	47.82
212.548	42.35
213.021	52.43
213.495	47.67
213.969	35.01
214.443	66.35
214.917	48.82
215.391	42.77
215.864	37.26
216.338	57.27
216.812	31.93
217.286	19.22
217.759	61.78
218.233	49.06
218.706	27.32
219.18	37.57
219.654	44.1
220.127	33.11
220.6	53.22
221.074	31.63
221.547	48.29
222.021	30.81
222.494	28.04
222.967	47.31
223.441	40.27
223.914	50.63
224.387	27.5
224.86	33.94
225.334	39.72
225.807	32.48
226.28	20.2
226.753	40.19
227.226	33.21
227.699	21.72
228.172	31.2
228.645	30.12
229.118	24.34
229.591	19.2
230.064	27.99
230.537	31.58
231.01	25.25
231.482	25.77
231.955	20.1
232.428	24.3
232.901	23.98
233.373	26.54
233.846	20.73
234.319	23.51
234.791	21.95
235.264	24.8
235.736	21.59
236.209	23.35
236.681	23.91
237.154	21.39
237.626	21.87
238.099	20.83
238.571	19.49
239.044	17.5
239.516	22.53
239.988	18.05
240.46	21.57
240.933	19.46
241.405	21.08
241.877	20.3
242.349	17.46
242.821	19.64
243.293	20.59
243.765	16.72
244.237	21.52
244.71	19.47
245.181	18.28
245.653	18.2
246.125	17.1
246.597	19.44
247.069	17.06
247.541	17.73
248.013	17.1
248.485	19.4
248.956	20.02
249.428	18.32
249.9	15.8
250.371	17.18
250.843	19.1
251.315	17.9
251.786	16.23
252.258	13.98
252.729	16.66
253.201	14.68
253.672	15.58
254.144	15.3
254.615	15.03
255.086	16.29
255.558	14.29
256.029	14.85
256.5	15.49
256.972	17.06
257.443	15.94
257.914	16.3
258.385	15.38
258.856	14.92
259.327	14.38
259.799	15.01
260.27	16.33
260.741	15.18
261.212	15.63
261.683	16.57
262.154	15.62
262.624	14.05
263.095	14.35
263.566	15.35
264.037	15.25
264.508	15.12
264.979	15.05
265.449	15.11
265.92	14.8
266.391	14.46
266.861	14.82
267.332	15.66
267.803	15.16
268.273	15.63
268.744	15.53
269.214	14.18
269.685	15.97
270.155	12.39
270.626	14.03
271.096	14.82
271.566	16.21
272.037	15.53
272.507	16.18
272.977	14.31
273.448	14.05
273.918	17.32
274.388	15.74
274.858	15.9
275.328	15.46
275.798	13.64
276.268	14.36
276.738	13.42
277.208	12.64
277.678	16.81
278.148	14.66
278.618	15.14
279.088	14.29
279.558	16.23
280.028	14.84
280.498	14.57
280.968	14.21
281.437	16.07
281.907	12.85
282.377	14.05
282.847	13.79
283.316	14.88
283.786	13.94
284.255	14.95
284.725	14.5
285.194	13.74
285.664	14.59
286.133	14.69
286.603	13.91
287.072	14.93
287.542	14.07
288.011	15.1
288.48	15.01
288.95	13.84
289.419	13.21
289.888	14.12
290.357	13.11
290.827	13.12
291.296	14.14
291.765	15.28
292.234	12.88
292.703	15.08
293.172	14.51
293.641	13.54
294.11	15.49
294.579	12.74
295.048	13.47
295.517	13.82
295.986	14.15
296.455	14.52
296.923	15.39
297.392	13.19
297.861	13.79
298.33	14.68
298.798	13.67
299.267	17.15
299.736	13.72
300.204	14.99
300.673	14.93
301.141	14.72
301.61	14.83
302.079	13.27
302.547	12.91
303.015	15.18
303.484	14.64
303.952	13.03
304.421	13.98
304.889	12.57
305.357	15.12
305.825	15.41
306.294	14.74
306.762	15.08
307.23	14.57
307.698	15.71
308.166	14.94
308.634	14.59
309.103	16.09
309.571	14.82
310.039	15.33
310.507	16.09
310.975	14.77
311.442	13.59
311.91	14.59
312.378	14.95
312.846	14.99
313.314	15.1
313.782	15.67
314.249	14.28
314.717	15.52
315.185	15.33
315.652	16.13
316.12	16.74
316.588	15.16
317.055	14.34
317.523	15.25
317.99	14.82
318.458	15.06
318.925	14.57
319.393	14.75
319.86	14.42
320.328	15.69
320.795	15.79
321.262	17.45
321.73	14.09
322.197	16.91
322.664	15.53
323.131	15.16
323.598	16.79
324.066	14.98
324.533	14.87
325	16.06
325.467	14.79
325.934	15.53
326.401	16.67
326.868	16.01
327.335	17.74
327.802	16.67
328.269	15.32
328.735	16.3
329.202	17.02
329.669	16.48
330.136	18.13
330.603	17.34
331.069	16.41
331.536	16.87
332.003	15.31
332.469	15.47
332.936	15.76
333.402	16.72
333.869	15.92
334.336	16.18
334.802	17.13
335.268	14.87
335.735	17.59
336.201	16.03
336.668	16.21
337.134	17.35
337.6	16.15
338.067	15.16
338.533	16.11
338.999	16.37
339.465	18.8
339.931	17.02
340.398	16.12
340.864	18.14
341.33	16.11
341.796	17.01
342.262	17.47
342.728	16.64
343.194	16.39
343.66	17.13
344.126	16.52
344.592	16.29
345.057	18.01
345.523	14.41
345.989	17.28
346.455	16.98
346.921	16.47
347.386	15.5
347.852	16.97
348.318	17.79
348.783	16.32
349.249	14.32
349.714	17.19
350.18	17.03
350.645	15.64
351.111	18.02
351.576	14.92
352.042	16.47
352.507	16.03
352.973	15.71
353.438	16.33
353.903	16.63
354.369	17.27
354.834	16.96
355.299	15.95
355.764	16.44
356.229	15.47
356.695	14.08
357.16	14.51
357.625	15.01
358.09	15.51
358.555	15.51
359.02	16.73
359.485	13.21
359.95	17.27
360.415	15.75
360.879	15.67
361.344	15.83
361.809	16.27
362.274	12.92
362.739	15.11
363.203	16.08
363.668	16.89
364.133	14.22
364.597	15.88
365.062	15.46
365.527	15.63
365.991	15.17
366.456	16.18
366.92	15.1
367.385	14.33
367.849	17.55
368.314	15.36
368.778	14.56
369.242	14.56
369.707	15.27
370.171	14.65
370.635	15.12
371.1	14.9
371.564	15.34
372.028	14.95
372.492	13.63
372.956	14.63
373.42	15.36
373.884	14.68
374.348	16.36
374.812	14.3
375.276	12.36
375.74	15.6
376.204	15.08
376.668	14.51
377.132	16.09
377.596	14.68
378.06	14.37
378.524	15.1
378.987	14.88
379.451	14.9
379.915	12.9
380.378	15.64
380.842	13.28
381.306	15.34
381.769	13.48
382.233	15.24
382.696	13.12
383.16	15.45
383.623	14.81
384.087	15.57
384.55	13.62
385.014	14.69
385.477	12.98
385.94	15.84
386.404	14.95
386.867	14.39
387.33	14.86
387.793	13.44
388.256	12.7
388.72	14.23
389.183	14.04
389.646	15.02
390.109	13.86
390.572	14.32
391.035	13.89
391.498	13.29
391.961	13.91
392.424	15.01
392.887	12.65
393.35	13.79
393.812	13.83
394.275	14.67
394.738	14.22
395.201	13
395.664	14.69
396.126	14.26
396.589	14.68
397.052	13.19
397.514	14.04
397.977	14
398.439	14.04
398.902	12.84
399.364	14.64
399.827	13.49
400.289	14.88
400.752	13.67
401.214	13.71
401.676	12.92
402.139	12.78
402.601	13.86
403.063	15.43
403.525	14.76
403.988	16.1
404.45	14.67
404.912	13.82
405.374	12.76
405.836	13.48
406.298	12.54
406.76	14.15
407.222	14.57
407.684	12.96
408.146	13.05
408.608	13.03
409.07	15.29
409.532	15.1
409.994	13.26
410.456	14.26
410.917	12.63
411.379	11.86
411.841	12.1
412.303	13.3
412.764	14.23
413.226	13.08
413.687	13.55
414.149	15.07
414.611	13.7
415.072	13.15
415.534	14.09
415.995	12.44
416.457	12.25
416.918	13.5
417.379	12.3
417.841	12.66
418.302	13.87
418.763	12.69
419.225	14.3
419.686	12.53
420.147	14.26
420.608	13.14
421.069	13.43
421.53	13.7
421.991	12.58
422.453	12.08
422.914	14.02
423.375	12.94
423.836	13.22
424.297	13.97
424.757	11.97
425.218	15.78
425.679	13.04
426.14	13.1
426.601	13.13
427.062	13.53
427.522	14.36
427.983	13.54
428.444	12.86
428.904	14.33
429.365	14.2
429.826	14.83
430.286	12.33
430.747	14.92
431.207	14.89
431.668	14.67
432.128	14.09
432.589	13.39
433.049	13.62
433.509	13.69
433.97	12.08
434.43	15.89
434.89	14.81
435.351	12.95
435.811	13.02
436.271	13.31
436.731	14.84
437.191	16.02
437.651	15.39
438.112	13.76
438.572	13.98
439.032	14.3
439.492	12.61
439.952	14.77
440.412	14.15
440.871	16.35
441.331	11.47
441.791	13.72
442.251	12.21
442.711	13.93
443.171	13.42
443.63	12.26
444.09	13.27
444.55	13.86
445.009	14.79
445.469	11.94
445.929	14.44
446.388	13.83
446.848	12.82
447.307	13.64
447.767	12.62
448.226	14.46
448.686	13.58
449.145	12.69
449.604	12.82
450.064	13.11
450.523	14.81
450.982	14.5
451.442	14.53
451.901	15.48
452.36	15.97
452.819	15.06
453.278	12.47
453.737	15.09
454.197	13.79
454.656	13.76
455.115	15.29
455.574	14.51
456.033	15.28
456.492	13.08
456.95	15.81
457.409	15.01
457.868	14.22
458.327	13.28
458.786	16.17
459.245	12.74
459.703	13.96
460.162	14.03
460.621	14.97
461.079	12.62
461.538	16.96
461.997	14.57
462.455	15.22
462.914	14.38
463.372	15.67
463.831	14.37
464.289	16.14
464.748	14.24
465.206	15.29
465.664	14.9
466.123	14.13
466.581	12.61
467.039	15.49
467.497	16.52
467.956	14.53
468.414	14.25
468.872	16.3
469.33	15.17
469.788	13.86
470.246	14.05
470.704	15.63
471.162	15.29
471.62	14.98
472.078	17.77
472.536	15.66
472.994	14.25
473.452	15.26
473.91	18.26
474.368	17.91
474.826	14.93
475.283	16.5
475.741	16.62
476.199	14.33
476.656	16.41
477.114	15.21
477.572	15.36
478.029	16.97
478.487	18.17
478.944	14.86
479.402	16.75
479.859	17.65
480.317	17.46
480.774	19.41
481.232	19.75
481.689	15.26
482.146	18.91
482.604	19.58
483.061	17.06
483.518	19.86
483.975	17.69
484.433	18.4
484.89	19.9
485.347	19.66
485.804	19.9
486.261	19.74
486.718	18.93
487.175	19.62
487.632	19.01
488.089	21.37
488.546	21.36
489.003	17.33
489.46	25.97
489.917	19.94
490.373	20.75
490.83	20.46
491.287	22.48
491.744	18.99
492.2	21.2
492.657	20.04
493.114	20
493.57	20.55
494.027	23.33
494.484	23.86
494.94	21.89
495.397	23.13
495.853	23.58
496.31	22.38
496.766	24.33
497.222	24.95
497.679	22.5
498.135	24.55
498.591	22.31
499.048	25.5
499.504	25.25
499.96	23.33
500.416	23.35
500.872	22.06
501.329	20.16
501.785	23.62
502.241	23.21
502.697	23.83
503.153	25.72
503.609	25.09
504.065	24.39
504.521	23.04
504.977	23.77
505.432	23.06
505.888	25.15
506.344	25.83
506.8	23.61
507.256	24.71
507.711	22.84
508.167	23.77
508.623	22.22
509.078	25.46
509.534	24.22
509.99	24.74
510.445	24.85
510.901	24.24
511.356	25.72
511.812	24.02
512.267	25.76
512.722	25.65
513.178	25.2
513.633	24.29
514.089	26.47
514.544	23.04
514.999	24.64
515.454	24.21
515.91	26.1
516.365	25.65
516.82	25.28
517.275	26.86
517.73	27.1
518.185	24.86
518.64	25.88
519.095	25.82
519.55	26.85
520.005	26.4
520.46	28.09
520.915	28.37
521.37	26.8
521.825	26.76
522.28	24.62
522.734	29.38
523.189	28.42
523.644	28
524.099	26.98
524.553	28.1
525.008	26.2
525.462	27.47
525.917	28.81
526.372	28.85
526.826	28.12
527.281	30.03
527.735	28.49
528.19	28
528.644	28.8
529.098	27.61
529.553	30.59
530.007	29.17
530.461	31.24
530.916	30.8
531.37	30.73
531.824	28.38
532.278	29.16
532.732	30.72
533.186	30.17
533.641	31.33
534.095	33.21
534.549	29.27
535.003	31.78
535.457	28.25
535.911	32.47
536.365	32.8
536.818	31.39
537.272	31.24
537.726	33.34
538.18	30.7
538.634	33.39
539.087	30.14
539.541	31.53
539.995	34.31
540.449	33.85
540.902	31.98
541.356	34.4
541.809	34.98
542.263	33.29
542.716	32
543.17	35.38
543.623	35.8
544.077	32.93
544.53	33.24
544.984	33.97
545.437	35.92
545.89	37.78
546.344	34.84
546.797	33.93
547.25	34.06
547.703	36.93
548.157	38.19
548.61	33.29
549.063	37.07
549.516	34.82
549.969	35.25
550.422	39.1
550.875	36.07
551.328	37.24
551.781	38.55
552.234	36.97
552.687	36.75
553.14	39.13
553.592	38.09
554.045	37.88
554.498	38.57
554.951	38.73
555.404	38.45
555.856	38.33
556.309	39.68
556.762	39.09
557.214	37.76
557.667	36.63
558.119	41.3
558.572	39.5
559.024	40
559.477	38.69
559.929	39.89
560.382	41.75
560.834	40.24
561.286	41.62
561.739	41.06
562.191	40.42
562.643	40.05
563.095	40.75
563.548	39.51
564	41.22
564.452	41.6
564.904	41.07
565.356	41.76
565.808	41.13
566.26	42.37
566.712	42.05
567.164	40.94
567.616	39.42
568.068	41.48
568.52	41.4
568.972	40.04
569.424	41.91
569.876	42.64
570.327	41.26
570.779	40.85
571.231	42.61
571.682	40.92
572.134	42.19
572.586	41.56
573.037	42.27
573.489	42.44
573.941	39.94
574.392	39.99
574.844	41.67
575.295	43.03
575.746	42.51
576.198	40.54
576.649	39.84
577.101	42.43
577.552	43.08
578.003	42.36
578.454	41.28
578.906	42.34
579.357	39.66
579.808	40.47
580.259	41.79
580.71	41.33
581.161	44.32
581.612	43.35
582.064	42.05
582.515	40.73
582.965	41.21
583.416	44.05
583.867	43.45
584.318	43.13
584.769	43.26
585.22	43.27
585.671	43.75
586.122	43.17
586.572	45.73
587.023	43.9
587.474	42.26
587.924	43.22
588.375	42.63
588.826	43.59
589.276	42.49
589.727	44.89
590.177	44.91
590.628	42.11
591.078	44.77
591.529	44.09
591.979	43.49
592.429	43.58
592.88	44.8
593.33	43.74
593.78	44.13
594.231	43.35
594.681	45.91
595.131	44.17
595.581	45.88
596.031	44.02
596.481	45.28
596.932	43.11
597.382	43.25
597.832	45.98
598.282	45.23
598.732	45.49
599.182	43.89
599.632	47.07
600.081	43.29
600.531	43.72
600.981	45.42
601.431	44.22
601.881	45.62
602.33	44.24
602.78	45.38
603.23	43.95
603.679	45
604.129	46.36
604.579	43.44
605.028	45.93
605.478	47.29
605.927	45.05
606.377	45.6
606.826	44.44
607.276	44.72
607.725	45.93
608.175	45.83
608.624	46.97
609.073	44.99
609.522	44.2
609.972	46.15
610.421	45.61
610.87	43.97
611.319	43.85
611.768	45.73
612.218	46.14
612.667	43.97
613.116	46.66
613.565	46.04
614.014	46.19
614.463	45.31
614.912	44.09
615.361	45.81
615.81	45.31
616.258	45.63
616.707	46.73
617.156	45.39
617.605	45.94
618.054	46.07
618.502	44.11
618.951	43.57
619.4	45.22
619.848	47.1
620.297	45.42
620.745	44.51
621.194	46.43
621.642	45.12
622.091	43.69
622.539	45.92
622.988	44.36
623.436	45.74
623.885	46.84
624.333	44.85
624.781	45.91
625.23	43.99
625.678	45.22
626.126	45.47
626.574	45.8
627.022	43.67
627.471	46.3
627.919	46.15
628.367	45.12
628.815	45.33
629.263	46.05
629.711	44.65
630.159	45.03
630.607	45.61
631.055	46
631.503	44.91
631.95	44.55
632.398	45.46
632.846	45.85
633.294	45.84
633.742	45.59
634.189	44.78
634.637	45.42
635.085	45.3
635.532	44.83
635.98	44.65
636.427	45.1
636.875	45.72
637.323	45.91
637.77	44.51
638.217	46.16
638.665	45.43
639.112	44.62
639.56	46.02
640.007	46.78
640.454	45.79
640.902	46.48
641.349	43.54
641.796	44.55
642.243	45.95
642.69	46.72
643.138	46.29
643.585	44.08
644.032	45.7
644.479	45.32
644.926	46.8
645.373	44.36
645.82	45.07
646.267	46.66
646.714	45.92
647.161	45.3
647.607	44.84
648.054	46.69
648.501	44.68
648.948	45.69
649.395	44.6
649.841	45.95
650.288	44.57
650.735	46.42
651.181	46.94
651.628	45.1
652.075	47.05
652.521	46.17
652.968	45.97
653.414	46.1
653.861	45.51
654.307	45.09
654.753	46.88
655.2	44.96
655.646	46.57
656.092	46.04
656.539	47.21
656.985	45.43
657.431	44.94
657.877	46.23
658.324	46.03
658.77	46.8
659.216	45.91
659.662	46.56
660.108	45.5
660.554	46.37
661	47.05
661.446	46.09
661.892	46.33
662.338	45.19
662.784	47.23
663.23	46.69
663.675	44.33
664.121	46.01
664.567	46.04
665.013	45.77
665.458	45.92
665.904	46.02
666.35	46.57
666.795	45.25
667.241	45.49
667.687	45.03
668.132	46.7
668.578	45.58
669.023	46.59
669.469	46.5
669.914	45.79
670.359	46.28
670.805	45.99
671.25	44.8
671.695	45.97
672.141	45.96
672.586	44.27
673.031	45.51
673.476	45.43
673.922	45.17
674.367	46.64
674.812	45.41
675.257	44.94
675.702	45.7
676.147	46.26
676.592	45.37
677.037	45.38
677.482	45.22
677.927	45.49
678.372	45.89
678.817	45.6
679.261	46.72
679.706	45.21
680.151	45.61
680.596	45.91
681.04	47.1
681.485	46.62
681.93	46.56
682.374	45.92
682.819	46.55
683.264	46.44
683.708	45.85
684.153	46.01
684.597	45.7
685.042	48.35
685.486	45
685.93	45.6
686.375	47.33
686.819	45.64
687.263	45.28
687.708	46.45
688.152	45.66
688.596	46.19
689.04	45.75
689.485	46.87
689.929	46.28
690.373	45.92
690.817	45.78
691.261	45.84
691.705	46.44
692.149	47.51
692.593	45.7
693.037	45.45
693.481	45.57
693.925	46.17
694.369	45.47
694.812	46.16
695.256	45.37
695.7	45.33
696.144	46.31
696.587	46.05
697.031	45.89
697.475	46.83
697.918	45.49
698.362	45.83
698.806	46.17
699.249	45.7
699.693	45.38
700.136	44.82
700.58	45.73
701.023	46.15
701.466	45.23
701.91	45.43
702.353	46.38
702.796	45.16
703.24	45.32
703.683	45.27
704.126	45.32
704.569	45.38
705.013	45.32
705.456	44.73
705.899	46.41
706.342	44.58
706.785	45.26
707.228	46.12
707.671	47.29
708.114	47.62
708.557	45.18
709	45.76
709.443	45.86
709.886	44.84
710.328	45.83
710.771	44.59
711.214	45.62
711.657	46.08
712.099	45.85
712.542	45.31
712.985	45.48
713.427	45.77
713.87	45.08
714.313	44.46
714.755	45.07
715.198	45.93
715.64	45.39
716.083	46.95
716.525	46.23
716.967	45.29
717.41	44.86
717.852	45.25
718.295	45.66
718.737	46.13
719.179	45.57
719.621	44.74
720.063	45.25
720.506	46.25
720.948	44.45
721.39	45.88
721.832	45.54
722.274	46.34
722.716	45.48
723.158	45.35
723.6	44.9
724.042	44.65
724.484	45.45
724.926	44.7
725.368	44.09
725.81	45.43
726.251	44.59
726.693	45.59
727.135	46.33
727.577	45.79
728.018	44.92
728.46	44.81
728.902	44.37
729.343	44.79
729.785	45.12
730.226	45.41
730.668	45.36
731.109	45.28
731.551	44.74
731.992	45.22
732.434	44.66
732.875	46.04
733.316	45.19
733.758	45.13
734.199	45.03
734.64	44.07
735.081	44.86
735.523	44.72
735.964	44.74
736.405	45.48
736.846	45.64
737.287	44.51
737.728	44.77
738.169	45.65
738.61	44.7
739.051	45.92
739.492	45.06
739.933	43.96
740.374	45.89
740.815	44.89
741.256	45.65
741.696	44.94
742.137	45.18
742.578	44.63
743.019	43.86
743.459	44.25
743.9	44.59
744.341	45.44
744.781	45
745.222	44.35
745.662	45.29
746.103	45.75
746.543	45.4
746.984	43.53
747.424	45.54
747.865	45.01
748.305	44.98
748.745	45.17
749.186	44.56
749.626	44.58
750.066	44.42
750.506	45.49
750.947	44.42
751.387	44.83
751.827	44.78
752.267	45.4
752.707	45.09
753.147	43.61
753.587	44.12
754.027	45.11
754.467	45.82
754.907	43.66
755.347	44.22
755.787	45.3
756.227	44.72
756.667	44.45
757.107	44.48
757.546	44.64
757.986	44.2
758.426	44.79
758.865	45.13
759.305	43.96
759.745	44.61
760.184	43.43
760.624	45.08
761.063	44.77
761.503	44.42
761.943	43.6
762.382	44.12
762.821	45.43
763.261	45.77
763.7	45.54
764.14	44.53
764.579	45.28
765.018	43.53
765.457	44.64
765.897	44.65
766.336	45.24
766.775	44.68
767.214	43.37
767.653	44.16
768.092	44.68
768.531	46.45
768.97	43.85
769.409	44.81
769.848	44.22
770.287	44.57
770.726	44.27
771.165	44.33
771.604	45.29
772.043	45.07
772.482	43.04
772.92	44
773.359	43.36
773.798	44.7
774.237	43.7
774.675	44.25
775.114	44.18
775.553	44.03
775.991	44.33
776.43	44.03
776.868	42.63
777.307	43.51
777.745	45
778.184	42.86
778.622	43.1
779.06	44.41
779.499	45.12
779.937	43.62
780.375	43.51
780.814	44.44
781.252	44.02
781.69	44.52
782.128	44
782.566	43.65
783.004	43.56
783.443	44.68
783.881	44.33
784.319	44.87
784.757	43.56
785.195	43.11
785.633	44.89
786.071	43.97
786.508	44.77
786.946	45.33
787.384	43.65
787.822	43.85
788.26	44.6
788.697	45.06
789.135	43.82
789.573	44.21
790.011	44.37
790.448	44.04
790.886	44.38
791.323	44.88
791.761	44.9
792.198	44.19
792.636	44.08
793.073	44.91
793.511	43.22
793.948	43.62
794.386	43.24
794.823	44.41
795.26	44.21
795.698	43.27
796.135	44.18
796.572	43.37
797.009	43.7
797.446	43.12
797.884	43.77
798.321	43.56
798.758	43.92
799.195	44.24
799.632	44.2
800.069	43.42
800.506	44.15
800.943	44.14
801.38	43.43
801.817	44.17
802.254	42.94
802.69	44.04
803.127	43.98
803.564	44.43
804.001	44.05
804.438	43.96
804.874	44.55
805.311	44.84
