Data from JCR0028_WhiteVentral_Reflection_00002.txt Node
Date: Fri Jul 31 12:42:12 ACST 2020
User: Stacey Dix
Spectrometer: MAYP113282
Scans to average: 1
Trigger mode: 0
Integration Time (sec): 1.000000E-1
Electric dark correction enabled: true
Boxcar width: 0
XAxis mode: Wavelengths
Number of Pixels in Spectrum: 2068
>>>>>Begin Spectral Data<<<<<
198.791	18.18
199.266	175
199.74	190
200.215	-200
200.69	45.18
201.164	48.36
201.639	68.97
202.114	45.73
202.588	32.74
203.063	30.68
203.537	33.47
204.012	65.55
204.486	22.05
204.961	38.13
205.435	6.76
205.909	36.07
206.384	22.74
206.858	16.18
207.332	24.57
207.807	38.67
208.281	44.26
208.755	25
209.229	26.87
209.703	35.94
210.177	49.86
210.651	32.09
211.126	27.11
211.6	17.32
212.074	36.05
212.548	29.89
213.021	15.54
213.495	34.47
213.969	25.41
214.443	47.47
214.917	16.03
215.391	30.13
215.864	18.07
216.338	15.6
216.812	20.45
217.286	25.54
217.759	25.6
218.233	37.39
218.706	20.41
219.18	17.88
219.654	22.26
220.127	11.22
220.6	15.2
221.074	23.76
221.547	10.78
222.021	15.03
222.494	16.31
222.967	15.56
223.441	19.52
223.914	18.16
224.387	9.65
224.86	13.19
225.334	23.48
225.807	8.18
226.28	10.86
226.753	7.97
227.226	12.34
227.699	9.02
228.172	9.98
228.645	13.07
229.118	5.66
229.591	12.2
230.064	8.06
230.537	10.07
231.01	9.12
231.482	6.66
231.955	4.62
232.428	7.59
232.901	9.82
233.373	7.8
233.846	9.41
234.319	7.5
234.791	7.19
235.264	7.35
235.736	6.18
236.209	8.45
236.681	6.73
237.154	9.59
237.626	8.57
238.099	8.28
238.571	6.55
239.044	9.53
239.516	7.9
239.988	6.17
240.46	7.59
240.933	6.79
241.405	7.77
241.877	7.58
242.349	7.65
242.821	6.73
243.293	7.92
243.765	6.77
244.237	7.61
244.71	7.16
245.181	5.69
245.653	6.58
246.125	8.63
246.597	7.7
247.069	6.22
247.541	8.31
248.013	6.56
248.485	6.65
248.956	8.21
249.428	7.07
249.9	6.5
250.371	5.86
250.843	5.94
251.315	7.12
251.786	5.54
252.258	6.36
252.729	6.62
253.201	6.11
253.672	5.33
254.144	6.38
254.615	4.83
255.086	5.9
255.558	6.57
256.029	6.48
256.5	6.05
256.972	5.41
257.443	5.88
257.914	6.11
258.385	5.97
258.856	6.09
259.327	6.38
259.799	6.03
260.27	5.76
260.741	4.89
261.212	5.29
261.683	6.09
262.154	6.06
262.624	5.65
263.095	5.61
263.566	5.74
264.037	5.95
264.508	4.58
264.979	5.54
265.449	4.96
265.92	5.39
266.391	5.17
266.861	5.77
267.332	5.21
267.803	5.78
268.273	5.77
268.744	5.65
269.214	4.98
269.685	5.53
270.155	6.26
270.626	6.55
271.096	4.88
271.566	5.58
272.037	6.14
272.507	6.59
272.977	6.06
273.448	6.55
273.918	6.3
274.388	4.79
274.858	5.38
275.328	5.71
275.798	5.27
276.268	5.98
276.738	5.68
277.208	6.22
277.678	4.76
278.148	6.18
278.618	5.54
279.088	5.36
279.558	6.27
280.028	5.65
280.498	5.35
280.968	6.07
281.437	5.41
281.907	5.26
282.377	5.09
282.847	5.1
283.316	4.56
283.786	5.68
284.255	5.42
284.725	5.2
285.194	5.89
285.664	5.05
286.133	4.7
286.603	5.16
287.072	5.3
287.542	4.85
288.011	5.21
288.48	5.2
288.95	5.4
289.419	5.36
289.888	5.15
290.357	5.23
290.827	4.71
291.296	5.61
291.765	4.33
292.234	5.34
292.703	4.67
293.172	6.27
293.641	5.42
294.11	5.06
294.579	4.62
295.048	6.1
295.517	5.63
295.986	5.94
296.455	5.86
296.923	6.29
297.392	5.12
297.861	5.38
298.33	5.61
298.798	6.33
299.267	6.17
299.736	4.96
300.204	5.62
300.673	5.72
301.141	5.32
301.61	4.97
302.079	5.49
302.547	5.79
303.015	5.43
303.484	5.02
303.952	6.03
304.421	5.89
304.889	6.13
305.357	5.94
305.825	5.1
306.294	5.85
306.762	6
307.23	5.91
307.698	6.3
308.166	5.58
308.634	5.1
309.103	5.85
309.571	6.03
310.039	5.86
310.507	6.12
310.975	5.49
311.442	5.86
311.91	5.7
312.378	6.83
312.846	5.92
313.314	6.16
313.782	6.08
314.249	5.57
314.717	6.23
315.185	5.75
315.652	6.26
316.12	6.68
316.588	5.32
317.055	6.89
317.523	6.1
317.99	6.34
318.458	6.13
318.925	5.53
319.393	6.32
319.86	6.96
320.328	5.94
320.795	6.45
321.262	6.7
321.73	5.18
322.197	7.21
322.664	6.72
323.131	7.48
323.598	8.01
324.066	8.02
324.533	7.49
325	8.48
325.467	8.44
325.934	8.93
326.401	9.18
326.868	9.33
327.335	8.97
327.802	9.65
328.269	9.7
328.735	11.18
329.202	11.02
329.669	11.28
330.136	11.46
330.603	12.2
331.069	12.13
331.536	12.19
332.003	13.06
332.469	12.1
332.936	13.26
333.402	13.09
333.869	13.38
334.336	12.42
334.802	13.52
335.268	13.57
335.735	13.24
336.201	13.53
336.668	13.67
337.134	13.92
337.6	13.75
338.067	13.41
338.533	14.17
338.999	12.72
339.465	14.28
339.931	14
340.398	13.49
340.864	13.48
341.33	13.36
341.796	14.77
342.262	14.36
342.728	13.47
343.194	12.99
343.66	13.74
344.126	14.22
344.592	13.93
345.057	14.06
345.523	13.42
345.989	13.8
346.455	13.72
346.921	13.53
347.386	16
347.852	14.34
348.318	13.36
348.783	13.27
349.249	13.07
349.714	14.2
350.18	13.81
350.645	13.75
351.111	13.22
351.576	13.82
352.042	13.86
352.507	14.43
352.973	14.82
353.438	13.1
353.903	15.61
354.369	13.85
354.834	14.33
355.299	14.85
355.764	14.28
356.229	13.79
356.695	13.77
357.16	13.26
357.625	14.98
358.09	14.14
358.555	15.61
359.02	14.06
359.485	15.16
359.95	13.83
360.415	14.65
360.879	15.36
361.344	14.35
361.809	15.97
362.274	13.37
362.739	14.47
363.203	14.61
363.668	14.07
364.133	13.73
364.597	14.08
365.062	14.12
365.527	15.82
365.991	14.17
366.456	13.18
366.92	13.97
367.385	14.97
367.849	14.43
368.314	13.72
368.778	14.12
369.242	14.98
369.707	15.21
370.171	15.41
370.635	14.29
371.1	14.82
371.564	16.53
372.028	15.29
372.492	14.94
372.956	14.79
373.42	15.23
373.884	13.66
374.348	14.37
374.812	15
375.276	14.84
375.74	14.67
376.204	14.68
376.668	15.55
377.132	17.08
377.596	13.79
378.06	15.08
378.524	14.44
378.987	16.16
379.451	15.41
379.915	16.23
380.378	14.94
380.842	15.36
381.306	15.54
381.769	15.89
382.233	16.82
382.696	15.12
383.16	16.38
383.623	15.69
384.087	16.45
384.55	15.7
385.014	14.79
385.477	15.49
385.94	16.68
386.404	16.57
386.867	16.04
387.33	15.94
387.793	16.57
388.256	16.66
388.72	16.25
389.183	16.9
389.646	15.82
390.109	17.48
390.572	17.62
391.035	16.37
391.498	16.06
391.961	17.37
392.424	16.36
392.887	16.58
393.35	16.93
393.812	17.18
394.275	16.44
394.738	17.22
395.201	16.47
395.664	17.14
396.126	17.87
396.589	15.77
397.052	18.13
397.514	16.25
397.977	17.53
398.439	17.26
398.902	16.91
399.364	16.99
399.827	15.98
400.289	17.28
400.752	16.24
401.214	17
401.676	16.49
402.139	16.84
402.601	16.22
403.063	15.32
403.525	17.89
403.988	16.08
404.45	16.38
404.912	17.76
405.374	15.77
405.836	16.31
406.298	17.1
406.76	16.9
407.222	17.99
407.684	16.32
408.146	17.14
408.608	16.99
409.07	16.52
409.532	17.32
409.994	16.79
410.456	17.27
410.917	17.33
411.379	17.24
411.841	16.76
412.303	17.72
412.764	17.09
413.226	17.58
413.687	16.51
414.149	16.55
414.611	16.61
415.072	17.73
415.534	17.74
415.995	17.72
416.457	16.5
416.918	17.04
417.379	17.59
417.841	17.26
418.302	17.71
418.763	17.19
419.225	18.44
419.686	18.54
420.147	17.63
420.608	17.81
421.069	18.92
421.53	17.17
421.991	17.73
422.453	18.05
422.914	18.85
423.375	17.23
423.836	18.42
424.297	18.46
424.757	18.78
425.218	17.05
425.679	19.57
426.14	18.67
426.601	19.41
427.062	19.73
427.522	17.61
427.983	19.72
428.444	18.67
428.904	19.82
429.365	20
429.826	19.16
430.286	21.34
430.747	20.37
431.207	20.52
431.668	20.12
432.128	21.98
432.589	20.42
433.049	20.71
433.509	19.59
433.97	20.63
434.43	21.6
434.89	19.44
435.351	18.95
435.811	20.84
436.271	20.21
436.731	21.5
437.191	21.26
437.651	20.45
438.112	20.52
438.572	19.79
439.032	19.52
439.492	20.28
439.952	21.92
440.412	19.57
440.871	21.98
441.331	22.39
441.791	22.25
442.251	21.14
442.711	20.04
443.171	21.49
443.63	21.33
444.09	22.51
444.55	22.13
445.009	20.9
445.469	21.05
445.929	21.34
446.388	20.37
446.848	19.96
447.307	22.51
447.767	21.63
448.226	22.76
448.686	21.96
449.145	20.14
449.604	20.81
450.064	19.9
450.523	21.63
450.982	21.98
451.442	23.21
451.901	21.05
452.36	20.55
452.819	22.73
453.278	21.94
453.737	21.98
454.197	22.29
454.656	21.78
455.115	21.95
455.574	22.18
456.033	23.81
456.492	23.41
456.95	21.33
457.409	23.62
457.868	22.25
458.327	23.15
458.786	21.45
459.245	22.42
459.703	22.86
460.162	21.41
460.621	21.28
461.079	21.38
461.538	23.43
461.997	22.86
462.455	21.13
462.914	22.11
463.372	22.59
463.831	21.59
464.289	23.45
464.748	24.07
465.206	21.56
465.664	21.33
466.123	21.43
466.581	20.98
467.039	22.14
467.497	21.08
467.956	23.24
468.414	22.42
468.872	21.23
469.33	20.67
469.788	23.84
470.246	23.42
470.704	22.5
471.162	20.79
471.62	23.11
472.078	22.37
472.536	21.16
472.994	23.51
473.452	22.4
473.91	23.53
474.368	22.54
474.826	23.57
475.283	22.61
475.741	22.28
476.199	23.19
476.656	24.55
477.114	21.53
477.572	23.04
478.029	23.18
478.487	23.63
478.944	21.87
479.402	25.43
479.859	23.88
480.317	21.85
480.774	25.47
481.232	22.51
481.689	23.43
482.146	22.12
482.604	20.74
483.061	25.12
483.518	23.05
483.975	20.29
484.433	22.48
484.89	23.91
485.347	22.15
485.804	24.4
486.261	25.54
486.718	22.67
487.175	23.9
487.632	23.39
488.089	22.06
488.546	25.41
489.003	22.31
489.46	24.75
489.917	24.12
490.373	23.86
490.83	22.37
491.287	26
491.744	22.42
492.2	22.49
492.657	23.61
493.114	23.56
493.57	21.93
494.027	25.8
494.484	21.66
494.94	22.72
495.397	22.81
495.853	24.38
496.31	24.13
496.766	24.12
497.222	24.38
497.679	22.75
498.135	23.76
498.591	24.19
499.048	21.32
499.504	23.08
499.96	23.56
500.416	22.61
500.872	22.41
501.329	23.22
501.785	22.21
502.241	22.55
502.697	22.88
503.153	24.37
503.609	23.53
504.065	22.46
504.521	23.47
504.977	25.44
505.432	23.37
505.888	24.72
506.344	24.26
506.8	23.34
507.256	23.9
507.711	23.39
508.167	24.6
508.623	22.47
509.078	24.39
509.534	24.13
509.99	23.81
510.445	23.73
510.901	23.05
511.356	24.73
511.812	21.97
512.267	25.51
512.722	23.27
513.178	23.32
513.633	25.51
514.089	24.84
514.544	25.27
514.999	24.42
515.454	24.07
515.91	22.85
516.365	22.86
516.82	22.53
517.275	25.54
517.73	25.37
518.185	22.88
518.64	25.59
519.095	23.73
519.55	22.65
520.005	24.21
520.46	23.91
520.915	23.75
521.37	24.92
521.825	24.35
522.28	23.59
522.734	24.72
523.189	23.42
523.644	23.2
524.099	23.85
524.553	24.25
525.008	25.16
525.462	24.95
525.917	24.53
526.372	23.29
526.826	25.05
527.281	23.74
527.735	23.56
528.19	22.26
528.644	23.46
529.098	23.17
529.553	24.05
530.007	23.56
530.461	23.3
530.916	22.74
531.37	24.68
531.824	24.95
532.278	23.47
532.732	24.87
533.186	24.5
533.641	23.84
534.095	25.12
534.549	24.85
535.003	25.18
535.457	24.76
535.911	26.79
536.365	24.96
536.818	24.03
537.272	23.89
537.726	24.96
538.18	24.52
538.634	25.08
539.087	24.99
539.541	25.49
539.995	25.31
540.449	26.08
540.902	23.54
541.356	24.81
541.809	25.48
542.263	24.77
542.716	23.32
543.17	24.61
543.623	26.69
544.077	24.88
544.53	24
544.984	24.89
545.437	25.9
545.89	24.97
546.344	24.52
546.797	25.79
547.25	24.87
547.703	25.83
548.157	24.79
548.61	26.35
549.063	25.75
549.516	25.61
549.969	26.78
550.422	24.71
550.875	27.37
551.328	27.18
551.781	26.41
552.234	24.81
552.687	25.49
553.14	24.66
553.592	25.11
554.045	27
554.498	25.26
554.951	24.99
555.404	25.46
555.856	26.18
556.309	26.74
556.762	26.42
557.214	25.73
557.667	25.7
558.119	26.98
558.572	25.1
559.024	25.53
559.477	26.11
559.929	25.63
560.382	25.37
560.834	24.89
561.286	25.09
561.739	25.65
562.191	25.61
562.643	27.04
563.095	24.63
563.548	25.81
564	24.38
564.452	26.35
564.904	24.54
565.356	25.41
565.808	26.57
566.26	26.09
566.712	24.99
567.164	25.12
567.616	26.13
568.068	27.09
568.52	26.9
568.972	24.86
569.424	25.32
569.876	25.63
570.327	26.2
570.779	25.41
571.231	25.25
571.682	26.19
572.134	25.53
572.586	26.98
573.037	25.54
573.489	25.95
573.941	26.19
574.392	25.85
574.844	24.8
575.295	26.01
575.746	25.23
576.198	26.99
576.649	26.25
577.101	25.99
577.552	27.05
578.003	26.57
578.454	24.64
578.906	25.72
579.357	26
579.808	25.67
580.259	25.02
580.71	25.92
581.161	26.63
581.612	25.54
582.064	25.07
582.515	26.52
582.965	25.93
583.416	25.78
583.867	25.99
584.318	26.4
584.769	26.26
585.22	25.92
585.671	24.78
586.122	26.04
586.572	26.02
587.023	27.07
587.474	26.35
587.924	26.23
588.375	26.17
588.826	26.02
589.276	26.33
589.727	25.87
590.177	26.11
590.628	27.22
591.078	24.58
591.529	26.58
591.979	25.65
592.429	26.54
592.88	26.77
593.33	25.95
593.78	25.34
594.231	26.46
594.681	25.11
595.131	25.53
595.581	26.76
596.031	25.59
596.481	25.26
596.932	26.97
597.382	25.85
597.832	26.27
598.282	25.52
598.732	26.7
599.182	24.29
599.632	27.37
600.081	26.14
600.531	27.11
600.981	27.5
601.431	26.84
601.881	26.79
602.33	27.39
602.78	25.55
603.23	26.61
603.679	26.75
604.129	27.32
604.579	27.23
605.028	26.52
605.478	26.01
605.927	27.61
606.377	26.56
606.826	27.08
607.276	26.42
607.725	26.5
608.175	26.34
608.624	26.99
609.073	25.99
609.522	27.05
609.972	25.19
610.421	27.14
610.87	26.57
611.319	26.7
611.768	27.74
612.218	26.11
612.667	27.02
613.116	26.6
613.565	26.78
614.014	26.6
614.463	27.43
614.912	26.33
615.361	27.96
615.81	26.76
616.258	26.72
616.707	26.46
617.156	27.09
617.605	26.46
618.054	27.77
618.502	26.21
618.951	27.1
619.4	25.59
619.848	27.86
620.297	27.21
620.745	27.34
621.194	26.66
621.642	27.19
622.091	25.82
622.539	26.57
622.988	26.02
623.436	26.44
623.885	26.27
624.333	26.99
624.781	26.1
625.23	26.88
625.678	26.83
626.126	26.34
626.574	26.39
627.022	26.54
627.471	25.99
627.919	27.64
628.367	27.05
628.815	26.33
629.263	27.54
629.711	27.03
630.159	26.07
630.607	26.22
631.055	26.79
631.503	26.59
631.95	27.2
632.398	25.93
632.846	27.28
633.294	26.24
633.742	27.09
634.189	27.25
634.637	26.24
635.085	26.6
635.532	26.77
635.98	26.73
636.427	26.29
636.875	26
637.323	26.44
637.77	26.63
638.217	27.11
638.665	26.29
639.112	26.49
639.56	26.2
640.007	27.12
640.454	26.22
640.902	27.11
641.349	26.22
641.796	26.42
642.243	26.63
642.69	26.55
643.138	26.53
643.585	26.23
644.032	26.59
644.479	25.88
644.926	26.79
645.373	25.38
645.82	26.92
646.267	25.99
646.714	26.08
647.161	26.39
647.607	26.63
648.054	25.22
648.501	27.21
648.948	26.62
649.395	27.04
649.841	26.82
650.288	25.87
650.735	26.59
651.181	26.51
651.628	26.75
652.075	27.04
652.521	26.67
652.968	26.35
653.414	26.63
653.861	26.66
654.307	26.44
654.753	25.53
655.2	27.53
655.646	25.68
656.092	26.56
656.539	26.14
656.985	27.11
657.431	26.23
657.877	25.88
658.324	26.81
658.77	26.42
659.216	26.27
659.662	27.3
660.108	26.41
660.554	26.57
661	25.93
661.446	26.89
661.892	26.31
662.338	27.01
662.784	26.99
663.23	26.5
663.675	26.15
664.121	26.84
664.567	26.78
665.013	26.07
665.458	26.82
665.904	26.83
666.35	26.73
666.795	26.13
667.241	27.46
667.687	26.49
668.132	26.55
668.578	26.53
669.023	26.5
669.469	25.94
669.914	26.8
670.359	27.41
670.805	26.97
671.25	25.32
671.695	25.73
672.141	26.44
672.586	26.59
673.031	26.93
673.476	27.07
673.922	26.28
674.367	27.52
674.812	27.35
675.257	26.93
675.702	26.6
676.147	26.26
676.592	25.95
677.037	26.06
677.482	27.57
677.927	26.15
678.372	27.02
678.817	26.4
679.261	27.08
679.706	26.94
680.151	26.83
680.596	26.88
681.04	26.81
681.485	26.09
681.93	26.42
682.374	27.4
682.819	27.54
683.264	27.43
683.708	27.14
684.153	26.62
684.597	27.08
685.042	26.7
685.486	26.81
685.93	26.81
686.375	27.27
686.819	26.27
687.263	27.11
687.708	27.37
688.152	26.51
688.596	27.04
689.04	27.03
689.485	27.33
689.929	26.95
690.373	26.92
690.817	27.4
691.261	26.32
691.705	27.53
692.149	26.72
692.593	25.99
693.037	26.47
693.481	27.01
693.925	26.81
694.369	26.96
694.812	26.7
695.256	26.91
695.7	26.7
696.144	26.68
696.587	26.83
697.031	27.54
697.475	26.65
697.918	26.46
698.362	26.61
698.806	27.29
699.249	26.91
699.693	26.48
700.136	26.54
700.58	26.68
701.023	26.65
701.466	26.35
701.91	27.12
702.353	26.61
702.796	27.24
703.24	26.71
703.683	26.48
704.126	26.63
704.569	26.8
705.013	26.86
705.456	26.9
705.899	27.13
706.342	26.72
706.785	26.3
707.228	27.15
707.671	26.8
708.114	26.78
708.557	26.5
709	27.37
709.443	26.85
709.886	27.45
710.328	26.57
710.771	26.81
711.214	25.96
711.657	27.13
712.099	26.61
712.542	27.85
712.985	26.26
713.427	26.16
713.87	26.9
714.313	26.82
714.755	27.09
715.198	26.65
715.64	27.23
716.083	26.72
716.525	27.16
716.967	26.95
717.41	26.8
717.852	26.75
718.295	26.54
718.737	27.83
719.179	27.58
719.621	27.11
720.063	27.35
720.506	26.59
720.948	27.75
721.39	26.85
721.832	26.63
722.274	26.54
722.716	26.69
723.158	26.68
723.6	26.82
724.042	26.28
724.484	26.23
724.926	26.8
725.368	26.45
725.81	26.98
726.251	26.64
726.693	26.67
727.135	27.02
727.577	26.91
728.018	26.44
728.46	26.99
728.902	27.58
729.343	27.04
729.785	27.16
730.226	26.25
730.668	26.9
731.109	27.12
731.551	27.13
731.992	26.38
732.434	27.23
732.875	27.42
733.316	27.31
733.758	26.63
734.199	27.1
734.64	27.05
735.081	26.88
735.523	26.87
735.964	26.98
736.405	26.59
736.846	26.94
737.287	26.86
737.728	26.76
738.169	26.94
738.61	27.78
739.051	27.16
739.492	27.12
739.933	26.93
740.374	25.98
740.815	27.3
741.256	27.47
741.696	28.04
742.137	26.08
742.578	27.54
743.019	27.69
743.459	27.45
743.9	27.25
744.341	27.3
744.781	27.74
745.222	27.03
745.662	26.56
746.103	26.98
746.543	27
746.984	27.37
747.424	26.35
747.865	26.77
748.305	27.34
748.745	26.32
749.186	26.98
749.626	26.68
750.066	27.33
750.506	27.3
750.947	25.96
751.387	26.75
751.827	27.2
752.267	26.7
752.707	27.48
753.147	26.64
753.587	26.49
754.027	26.98
754.467	27.47
754.907	27.16
755.347	27.58
755.787	27.79
756.227	27.75
756.667	27.57
757.107	27.93
757.546	26.96
757.986	26.31
758.426	26.46
758.865	26.37
759.305	27.36
759.745	27.07
760.184	26.75
760.624	27.64
761.063	26.87
761.503	27.29
761.943	27.1
762.382	27.37
762.821	26.81
763.261	27.03
763.7	27.24
764.14	26.54
764.579	26.44
765.018	27.68
765.457	26.28
765.897	26.74
766.336	27.21
766.775	27.05
767.214	27.14
767.653	27.05
768.092	26.86
768.531	26.96
768.97	27.14
769.409	26.32
769.848	27.16
770.287	26.77
770.726	26.4
771.165	27.74
771.604	27.47
772.043	27.28
772.482	27.2
772.92	27.38
773.359	27.28
773.798	27.17
774.237	27.29
774.675	27.3
775.114	26.94
775.553	27.43
775.991	27.02
776.43	27.54
776.868	26.57
777.307	26.72
777.745	27.33
778.184	27.13
778.622	27.71
779.06	27.28
779.499	27.32
779.937	27.26
780.375	27.15
780.814	27.24
781.252	27.21
781.69	26.74
782.128	27.11
782.566	27.27
783.004	26.74
783.443	27.52
783.881	27.86
784.319	26.99
784.757	27.49
785.195	27.71
785.633	27.58
786.071	27.09
786.508	27.27
786.946	26.75
787.384	27.04
787.822	27.8
788.26	27.68
788.697	26.9
789.135	26.65
789.573	27.51
790.011	27.46
790.448	27.34
790.886	27.74
791.323	27.05
791.761	27.74
792.198	27.69
792.636	27.29
793.073	26.63
793.511	27.25
793.948	27.48
794.386	27.48
794.823	27.36
795.26	27.18
795.698	26.88
796.135	27.5
796.572	27.01
797.009	26.77
797.446	27.34
797.884	27.45
798.321	27.32
798.758	27.94
799.195	26.93
799.632	26.88
800.069	27.61
800.506	27.24
800.943	27.08
801.38	27.32
801.817	28.45
802.254	27.3
802.69	27.29
803.127	27.45
803.564	27.75
804.001	27.5
804.438	28.09
804.874	27.17
805.311	28.01
805.748	26.99
806.184	27.67
806.621	27.5
807.057	27.62
807.494	27.52
807.93	27.45
808.367	27.45
808.803	27.24
809.24	27.68
809.676	27.84
810.112	27.22
810.549	27.77
810.985	27.67
