Data from JCR0020_WhiteVentral_Reflection_00006.txt Node
Date: Fri Jul 31 09:51:54 ACST 2020
User: Stacey Dix
Spectrometer: MAYP113282
Scans to average: 1
Trigger mode: 0
Integration Time (sec): 1.000000E-1
Electric dark correction enabled: true
Boxcar width: 0
XAxis mode: Wavelengths
Number of Pixels in Spectrum: 2068
>>>>>Begin Spectral Data<<<<<
198.791	378.79
199.266	144.44
199.74	211.11
200.215	48.15
200.69	166.67
201.164	105.36
201.639	83.15
202.114	114.52
202.588	226.44
203.063	124.88
203.537	75.44
204.012	79.61
204.486	61.37
204.961	71.29
205.435	51.71
205.909	61.84
206.384	74.1
206.858	57.1
207.332	57.76
207.807	58.22
208.281	87.11
208.755	72.49
209.229	53.28
209.703	68.46
210.177	96.25
210.651	65.01
211.126	84.27
211.6	65.84
212.074	111.84
212.548	63.04
213.021	44.7
213.495	53.66
213.969	68.97
214.443	75.71
214.917	64.39
215.391	51.11
215.864	53.5
216.338	65.57
216.812	63.99
217.286	70.81
217.759	69.57
218.233	46.49
218.706	52.5
219.18	51.46
219.654	50.07
220.127	67.2
220.6	47.33
221.074	53.16
221.547	44.09
222.021	42.68
222.494	47.6
222.967	51.19
223.441	38.23
223.914	32.88
224.387	40.24
224.86	26.56
225.334	43.24
225.807	41.64
226.28	29.95
226.753	33.05
227.226	36.33
227.699	28.38
228.172	30.88
228.645	36.73
229.118	34.72
229.591	25.79
230.064	26.8
230.537	28.06
231.01	27
231.482	26.05
231.955	40.06
232.428	22.63
232.901	27.93
233.373	24.29
233.846	21.12
234.319	19.09
234.791	20.67
235.264	17.91
235.736	25.07
236.209	22.87
236.681	21.36
237.154	18.36
237.626	21.15
238.099	18.53
238.571	18.23
239.044	18.9
239.516	20.88
239.988	20.55
240.46	19.95
240.933	17.01
241.405	19.27
241.877	17.86
242.349	20.34
242.821	19.21
243.293	17.72
243.765	17.05
244.237	16.15
244.71	18.34
245.181	20.49
245.653	16.96
246.125	17.15
246.597	16.18
247.069	17.89
247.541	16.63
248.013	18.58
248.485	18.01
248.956	17.88
249.428	14.67
249.9	16.46
250.371	16.45
250.843	16.24
251.315	17.42
251.786	17.17
252.258	16.69
252.729	14.29
253.201	15.66
253.672	16.45
254.144	14.14
254.615	15.57
255.086	16.39
255.558	15.41
256.029	15.89
256.5	15.41
256.972	14.27
257.443	15.42
257.914	16.19
258.385	15.44
258.856	14.36
259.327	14.59
259.799	14.92
260.27	14.41
260.741	14.98
261.212	12.94
261.683	14.17
262.154	14.35
262.624	13.56
263.095	13.26
263.566	14.71
264.037	14.65
264.508	14.4
264.979	12.54
265.449	14.84
265.92	13.99
266.391	16.09
266.861	14.16
267.332	13.86
267.803	13.56
268.273	13.87
268.744	13.96
269.214	13.61
269.685	14.79
270.155	13.86
270.626	13.8
271.096	14.7
271.566	13.53
272.037	14.43
272.507	13.5
272.977	16.02
273.448	14.02
273.918	13.96
274.388	13.19
274.858	16.14
275.328	12.85
275.798	14.11
276.268	13.69
276.738	14.49
277.208	13
277.678	13.42
278.148	15.17
278.618	14.32
279.088	13.69
279.558	13.48
280.028	14.47
280.498	15.77
280.968	13.65
281.437	17.06
281.907	15.95
282.377	14.54
282.847	12.59
283.316	13.52
283.786	13.54
284.255	14.06
284.725	12.93
285.194	14.93
285.664	13.92
286.133	14.63
286.603	13.26
287.072	13.98
287.542	12.16
288.011	14.85
288.48	13.84
288.95	13.2
289.419	14.01
289.888	15.35
290.357	13.68
290.827	13.65
291.296	12.41
291.765	13.99
292.234	14.14
292.703	12.75
293.172	13
293.641	14.35
294.11	12.79
294.579	14.96
295.048	13.16
295.517	14.25
295.986	13.54
296.455	13.31
296.923	14.94
297.392	14.54
297.861	14.46
298.33	13.8
298.798	14.15
299.267	14.34
299.736	14.03
300.204	14.31
300.673	15.17
301.141	13.44
301.61	13.65
302.079	13.48
302.547	14.5
303.015	13.51
303.484	14.72
303.952	15.1
304.421	13.76
304.889	13.9
305.357	15.2
305.825	15.35
306.294	14.32
306.762	15.39
307.23	13.9
307.698	15.74
308.166	13.91
308.634	14.9
309.103	14.7
309.571	14.9
310.039	14.47
310.507	14.89
310.975	16.51
311.442	14.94
311.91	14.1
312.378	15.84
312.846	14.59
313.314	14.22
313.782	15.1
314.249	15.29
314.717	14.57
315.185	14.25
315.652	12.82
316.12	13.95
316.588	14.15
317.055	14.32
317.523	13.82
317.99	14.98
318.458	13.67
318.925	13.85
319.393	15.58
319.86	13.95
320.328	14.28
320.795	15.48
321.262	14.25
321.73	14.57
322.197	16.03
322.664	15.55
323.131	13.42
323.598	16.45
324.066	16.4
324.533	15.84
325	16.97
325.467	15.92
325.934	16.09
326.401	17.27
326.868	16.91
327.335	17.09
327.802	20.07
328.269	19.16
328.735	20.39
329.202	20.39
329.669	20.32
330.136	20.4
330.603	20.84
331.069	22.03
331.536	20.3
332.003	20.89
332.469	23.13
332.936	22.09
333.402	21.91
333.869	21.69
334.336	22.42
334.802	22.69
335.268	22.88
335.735	23.55
336.201	22.66
336.668	22.79
337.134	23.55
337.6	20.78
338.067	22.69
338.533	24.44
338.999	24.59
339.465	25.76
339.931	23.33
340.398	22.26
340.864	23.9
341.33	23.31
341.796	24.26
342.262	22.81
342.728	23.45
343.194	21.97
343.66	23.41
344.126	23.45
344.592	23.03
345.057	22.9
345.523	23.54
345.989	23.98
346.455	22.49
346.921	23.12
347.386	22.43
347.852	22.41
348.318	23.93
348.783	25.29
349.249	23.02
349.714	22.48
350.18	26.65
350.645	25.46
351.111	23.49
351.576	24.18
352.042	24.28
352.507	24.52
352.973	24.71
353.438	24.61
353.903	23.89
354.369	23.72
354.834	25.11
355.299	23.11
355.764	23.25
356.229	24.54
356.695	24.46
357.16	24.47
357.625	23.19
358.09	24.27
358.555	26.25
359.02	25.39
359.485	26.7
359.95	26.59
360.415	24.58
360.879	24.26
361.344	26.25
361.809	24.7
362.274	25.55
362.739	26.64
363.203	24.96
363.668	25.36
364.133	25.69
364.597	23.5
365.062	25.79
365.527	26.39
365.991	25.23
366.456	26.7
366.92	25.88
367.385	24.95
367.849	26.64
368.314	27.63
368.778	25.91
369.242	27.68
369.707	28.03
370.171	26.59
370.635	25.83
371.1	27.85
371.564	28.65
372.028	29.49
372.492	28.22
372.956	27.95
373.42	29.13
373.884	27.38
374.348	27.17
374.812	29.17
375.276	27.79
375.74	28.38
376.204	28.86
376.668	28.66
377.132	29.66
377.596	28.04
378.06	29.18
378.524	28.39
378.987	27.5
379.451	26.96
379.915	27.69
380.378	27.33
380.842	29.88
381.306	28.73
381.769	30.82
382.233	30.82
382.696	31.39
383.16	31.37
383.623	29.45
384.087	27.24
384.55	30.95
385.014	30.31
385.477	30.28
385.94	30.96
386.404	31.41
386.867	29.17
387.33	30.59
387.793	28.73
388.256	28.61
388.72	30.29
389.183	29.61
389.646	29.35
390.109	30.84
390.572	29.8
391.035	30.79
391.498	31.08
391.961	30.53
392.424	30.92
392.887	29.99
393.35	30.52
393.812	33.74
394.275	30.37
394.738	30.48
395.201	29.96
395.664	30.29
396.126	29.71
396.589	31.89
397.052	31.69
397.514	30.55
397.977	29.19
398.439	31.66
398.902	30.96
399.364	29.61
399.827	32.38
400.289	30.66
400.752	30.64
401.214	32.36
401.676	27.55
402.139	28.9
402.601	30.15
403.063	32.76
403.525	29.79
403.988	29.22
404.45	32.87
404.912	33.44
405.374	30.11
405.836	30.86
406.298	30.34
406.76	28.54
407.222	30.87
407.684	31.05
408.146	31.49
408.608	30.91
409.07	30.11
409.532	31.23
409.994	30.3
410.456	32.24
410.917	31.27
411.379	29.55
411.841	31.5
412.303	29.73
412.764	31.47
413.226	30.42
413.687	30.95
414.149	31.26
414.611	31.53
415.072	31.04
415.534	32.19
415.995	32.02
416.457	32.09
416.918	33.7
417.379	30.09
417.841	32.57
418.302	31.36
418.763	32.57
419.225	32.74
419.686	33.52
420.147	32
420.608	32.51
421.069	31.43
421.53	31.59
421.991	32.14
422.453	33.4
422.914	34.86
423.375	30.75
423.836	34.39
424.297	32.1
424.757	32.52
425.218	34.32
425.679	34.2
426.14	34.47
426.601	33.21
427.062	34.65
427.522	33.09
427.983	34.56
428.444	36.64
428.904	38.53
429.365	37.17
429.826	33.93
430.286	38.02
430.747	35.29
431.207	32.5
431.668	36.09
432.128	38.8
432.589	36.07
433.049	38.33
433.509	37.04
433.97	37.56
434.43	38.7
434.89	38.74
435.351	36.78
435.811	40.15
436.271	39.3
436.731	37.77
437.191	39.04
437.651	36.44
438.112	37.77
438.572	40.74
439.032	38.58
439.492	36.57
439.952	40.57
440.412	35.36
440.871	37.75
441.331	39.75
441.791	40.42
442.251	39.14
442.711	40.39
443.171	38.7
443.63	39.62
444.09	38.22
444.55	38.08
445.009	39.68
445.469	41.15
445.929	38.52
446.388	42.01
446.848	39.7
447.307	44.15
447.767	37.94
448.226	39.81
448.686	38.8
449.145	40.51
449.604	40.36
450.064	41.31
450.523	39.34
450.982	43.34
451.442	39.78
451.901	40.56
452.36	42.23
452.819	40.6
453.278	40.18
453.737	40.81
454.197	39.84
454.656	41.55
455.115	42.18
455.574	42.04
456.033	40.68
456.492	43.11
456.95	39.44
457.409	42.15
457.868	40
458.327	40.71
458.786	43.25
459.245	44.59
459.703	42.59
460.162	41.41
460.621	41.54
461.079	44.84
461.538	42.53
461.997	41.95
462.455	41.85
462.914	41.47
463.372	40.06
463.831	41.49
464.289	42.33
464.748	41.64
465.206	42.18
465.664	44.83
466.123	42.62
466.581	42.47
467.039	42.61
467.497	44.8
467.956	42.11
468.414	44.23
468.872	39.53
469.33	43.2
469.788	45.4
470.246	43.16
470.704	42.39
471.162	43.26
471.62	42.67
472.078	45.28
472.536	44.29
472.994	40.56
473.452	43.14
473.91	43.58
474.368	43.08
474.826	45.85
475.283	42.82
475.741	44.18
476.199	47.1
476.656	46.06
477.114	45.57
477.572	44.66
478.029	44.97
478.487	44.58
478.944	44.01
479.402	44.79
479.859	41.17
480.317	46.79
480.774	43.63
481.232	45.39
481.689	43.2
482.146	43.71
482.604	45.74
483.061	46.27
483.518	44.29
483.975	43.25
484.433	45.62
484.89	43.49
485.347	44.17
485.804	44.9
486.261	44.7
486.718	44.98
487.175	45.8
487.632	40.51
488.089	46.01
488.546	43.6
489.003	44.71
489.46	44.49
489.917	42.96
490.373	43.36
490.83	44.63
491.287	48.75
491.744	43.16
492.2	46.26
492.657	44.59
493.114	45.11
493.57	42.32
494.027	45.38
494.484	47.49
494.94	42.88
495.397	44.82
495.853	44.85
496.31	49.84
496.766	43.74
497.222	46.21
497.679	47.91
498.135	47.79
498.591	47.68
499.048	46.92
499.504	46.11
499.96	43.41
500.416	44.67
500.872	45.85
501.329	47.22
501.785	42
502.241	47.4
502.697	48.12
503.153	47.28
503.609	44.55
504.065	45.36
504.521	43.95
504.977	47.79
505.432	46.42
505.888	47.33
506.344	45.51
506.8	44.92
507.256	45.76
507.711	42.98
508.167	45.33
508.623	46.95
509.078	46.23
509.534	44.74
509.99	44.9
510.445	47.11
510.901	42.87
511.356	46.67
511.812	46.68
512.267	44.44
512.722	42.82
513.178	45.59
513.633	43.64
514.089	46
514.544	47.71
514.999	44.16
515.454	43.22
515.91	47.67
516.365	45.36
516.82	47.12
517.275	44.31
517.73	47.34
518.185	45.27
518.64	43.24
519.095	47.93
519.55	45.19
520.005	45.31
520.46	45.7
520.915	46.02
521.37	48.18
521.825	48.82
522.28	44.3
522.734	47.03
523.189	47.11
523.644	45.73
524.099	46.21
524.553	46.05
525.008	44.62
525.462	48.53
525.917	43.54
526.372	46.21
526.826	47.84
527.281	42.42
527.735	45.95
528.19	46.28
528.644	46.86
529.098	47.29
529.553	44.01
530.007	49.8
530.461	47.74
530.916	46.59
531.37	46.7
531.824	45.77
532.278	45.68
532.732	49.39
533.186	46.17
533.641	47.41
534.095	47.61
534.549	46.54
535.003	44.15
535.457	47.46
535.911	45.79
536.365	47.15
536.818	46.88
537.272	50.32
537.726	47.76
538.18	44.94
538.634	44.92
539.087	44.64
539.541	47.37
539.995	46.14
540.449	48.73
540.902	48.35
541.356	43.62
541.809	45.59
542.263	47.32
542.716	45.8
543.17	47.05
543.623	50.49
544.077	47.62
544.53	47.7
544.984	47.76
545.437	47.95
545.89	46.84
546.344	47.29
546.797	45.27
547.25	50.22
547.703	45.5
548.157	48
548.61	49.93
549.063	45.58
549.516	46.49
549.969	50.33
550.422	46.49
550.875	45.42
551.328	45.25
551.781	46.11
552.234	43.26
552.687	48.33
553.14	47.65
553.592	48.14
554.045	47.5
554.498	49.2
554.951	46.99
555.404	48.29
555.856	47.11
556.309	47.23
556.762	47.79
557.214	49.59
557.667	48.37
558.119	48.92
558.572	46.78
559.024	48.74
559.477	46.67
559.929	50.91
560.382	49.15
560.834	47.51
561.286	50.07
561.739	48.26
562.191	46.13
562.643	49.38
563.095	48.7
563.548	47.88
564	50.12
564.452	48.26
564.904	48.46
565.356	48.82
565.808	49.27
566.26	48.92
566.712	45.83
567.164	48.28
567.616	47.54
568.068	48.46
568.52	47.66
568.972	45.83
569.424	47.87
569.876	46.43
570.327	47.2
570.779	46.95
571.231	49.79
571.682	48.03
572.134	50.03
572.586	50.19
573.037	48.73
573.489	48.71
573.941	49.38
574.392	48.38
574.844	49.36
575.295	49.39
575.746	49.72
576.198	46.91
576.649	50.21
577.101	47.16
577.552	49.42
578.003	51.84
578.454	46.61
578.906	48.92
579.357	48.17
579.808	47.6
580.259	45.89
580.71	49.62
581.161	50.57
581.612	47.03
582.064	48.63
582.515	50.59
582.965	47.87
583.416	50.38
583.867	48.69
584.318	48.86
584.769	48.57
585.22	49.27
585.671	49.48
586.122	51.1
586.572	49.33
587.023	50.08
587.474	47.42
587.924	49.62
588.375	47.06
588.826	48.76
589.276	51.74
589.727	47.88
590.177	49.45
590.628	51.88
591.078	50.93
591.529	52.96
591.979	48.73
592.429	48.98
592.88	49.7
593.33	47.88
593.78	51.07
594.231	51.2
594.681	51.13
595.131	50.08
595.581	50.96
596.031	49.57
596.481	49.35
596.932	50.45
597.382	50.03
597.832	50.7
598.282	49.16
598.732	49.48
599.182	49.02
599.632	49.51
600.081	49.76
600.531	49.15
600.981	49.96
601.431	48.66
601.881	50.6
602.33	51.25
602.78	50.81
603.23	49.12
603.679	51.02
604.129	48.84
604.579	51.11
605.028	49.36
605.478	48.25
605.927	50.78
606.377	50.79
606.826	48.72
607.276	51.75
607.725	50.28
608.175	49.36
608.624	50.84
609.073	50.1
609.522	50.21
609.972	51.43
610.421	51.05
610.87	50.95
611.319	49.96
611.768	50.75
612.218	51.9
612.667	49.47
613.116	51.97
613.565	51.36
614.014	50.28
614.463	51.08
614.912	52.06
615.361	50.38
615.81	49.22
616.258	50.5
616.707	50.54
617.156	50.53
617.605	51.14
618.054	48.48
618.502	50.53
618.951	51.12
619.4	51.4
619.848	52.46
620.297	49.22
620.745	51.42
621.194	51.35
621.642	50.32
622.091	50.79
622.539	50.64
622.988	51.61
623.436	51.28
623.885	49.65
624.333	50.07
624.781	51.43
625.23	52.46
625.678	52.33
626.126	49.65
626.574	49.44
627.022	48.94
627.471	51.28
627.919	50.18
628.367	49.48
628.815	51.26
629.263	50.48
629.711	49.31
630.159	50.22
630.607	51.44
631.055	51.79
631.503	51.3
631.95	50.05
632.398	50.07
632.846	51.09
633.294	50.07
633.742	50.36
634.189	51.6
634.637	50.37
635.085	51.83
635.532	50.58
635.98	50.74
636.427	49.97
636.875	49.84
637.323	50.41
637.77	51.12
638.217	51.08
638.665	50.45
639.112	50.77
639.56	51.5
640.007	50.39
640.454	50.08
640.902	50.82
641.349	51.76
641.796	50.81
642.243	50.41
642.69	49.35
643.138	49.18
643.585	50.65
644.032	49.96
644.479	50.57
644.926	48.65
645.373	51.52
645.82	50.68
646.267	50.98
646.714	48.26
647.161	50.47
647.607	51.24
648.054	50.21
648.501	51.75
648.948	51.28
649.395	50.09
649.841	50.54
650.288	51.87
650.735	49.44
651.181	52.68
651.628	49.97
652.075	50.79
652.521	50.35
652.968	51.48
653.414	51.16
653.861	49.31
654.307	52.65
654.753	49
655.2	51.93
655.646	51.25
656.092	52.48
656.539	51.6
656.985	50.66
657.431	51.36
657.877	50.94
658.324	50.43
658.77	51.45
659.216	50.51
659.662	50.86
660.108	51.6
660.554	50.9
661	50.48
661.446	50.92
661.892	52.34
662.338	51.35
662.784	52.7
663.23	53.18
663.675	52.01
664.121	50.87
664.567	50.96
665.013	53.15
665.458	50.33
665.904	50.95
666.35	50.45
666.795	49.77
667.241	51.02
667.687	49.33
668.132	50.59
668.578	51.56
669.023	51.38
669.469	50.07
669.914	50.3
670.359	49.76
670.805	52.44
671.25	50.16
671.695	50.35
672.141	51.64
672.586	50.27
673.031	51.4
673.476	51.28
673.922	51.62
674.367	51.79
674.812	51.48
675.257	50.82
675.702	51.35
676.147	49.87
676.592	52
677.037	51.98
677.482	50.27
677.927	52.11
678.372	51.53
678.817	51.95
679.261	50.11
679.706	50.63
680.151	51.31
680.596	51.15
681.04	50.33
681.485	52.46
681.93	51.78
682.374	50.85
682.819	51.61
683.264	51.92
683.708	50.98
684.153	51.95
684.597	51.49
685.042	53.1
685.486	52.12
685.93	52.02
686.375	50.6
686.819	51.07
687.263	51.13
687.708	52.12
688.152	51.12
688.596	51.65
689.04	52.21
689.485	51.01
689.929	50.17
690.373	51.25
690.817	53.01
691.261	50.1
691.705	51.76
692.149	52.52
692.593	52.04
693.037	50.45
693.481	52.22
693.925	50.28
694.369	50.4
694.812	51.18
695.256	51.8
695.7	51.36
696.144	51.54
696.587	50.62
697.031	50.11
697.475	51.33
697.918	50.03
698.362	49.41
698.806	51.62
699.249	50.59
699.693	50.32
700.136	51.66
700.58	50.05
701.023	51.12
701.466	50.42
701.91	51.44
702.353	50.69
702.796	50.87
703.24	51.79
703.683	50.96
704.126	50.82
704.569	49.88
705.013	50.48
705.456	51.06
705.899	50
706.342	50.95
706.785	50.32
707.228	52.2
707.671	50.54
708.114	52.06
708.557	50.71
709	51.2
709.443	50.05
709.886	51.85
710.328	51.57
710.771	50.64
711.214	50.81
711.657	51.38
712.099	51.22
712.542	50.89
712.985	51.53
713.427	51.16
713.87	51.78
714.313	52.48
714.755	51.81
715.198	51.62
715.64	51.61
716.083	50.47
716.525	50.46
716.967	52.27
717.41	53.41
717.852	51.41
718.295	51.84
718.737	50.85
719.179	51.97
719.621	50
720.063	51.92
720.506	49.9
720.948	49.88
721.39	51.11
721.832	51.04
722.274	50.88
722.716	51.89
723.158	49.9
723.6	50.25
724.042	50.81
724.484	51
724.926	51.07
725.368	50.61
725.81	50.95
726.251	52.04
726.693	50.81
727.135	52.35
727.577	50.01
728.018	50.52
728.46	51.69
728.902	51.13
729.343	50.98
729.785	51.52
730.226	51.1
730.668	50.93
731.109	51.42
731.551	50.31
731.992	52
732.434	50.92
732.875	49.59
733.316	51.02
733.758	52.22
734.199	51.47
734.64	51.62
735.081	49.92
735.523	50.49
735.964	50.87
736.405	51.64
736.846	51.69
737.287	49.16
737.728	51.76
738.169	50.45
738.61	50.37
739.051	50.64
739.492	50.62
739.933	51.68
740.374	51.54
740.815	50.88
741.256	50.76
741.696	53.09
742.137	51.01
742.578	50.76
743.019	50.46
743.459	51.55
743.9	51.45
744.341	51.15
744.781	50.55
745.222	51.43
745.662	50.94
746.103	51.18
746.543	51.82
746.984	50.63
747.424	51.8
747.865	51.95
748.305	51.22
748.745	49.61
749.186	51.53
749.626	50.51
750.066	50.79
750.506	50.86
750.947	51.82
751.387	51.33
751.827	51.44
752.267	50.87
752.707	52.26
753.147	51.96
753.587	50.98
754.027	51.14
754.467	51.76
754.907	50.99
755.347	51.72
755.787	51.19
756.227	50.65
756.667	50.98
757.107	51.88
757.546	51.89
757.986	52.01
758.426	51.64
758.865	50.89
759.305	51.16
759.745	52.29
760.184	51.31
760.624	51.37
761.063	51.32
761.503	51.88
761.943	52.44
762.382	50.49
762.821	51.44
763.261	51.08
763.7	52.26
764.14	50.79
764.579	50.26
765.018	52.16
765.457	51.29
765.897	51.7
766.336	50.31
766.775	52.05
767.214	51.7
767.653	51.12
768.092	50.67
768.531	51.11
768.97	50.59
769.409	51.68
769.848	51.33
770.287	50.75
770.726	50.44
771.165	50.66
771.604	51.02
772.043	51.12
772.482	52.05
772.92	52.19
773.359	50.76
773.798	52.19
774.237	50.5
774.675	51.14
775.114	51.64
775.553	51.92
775.991	51.59
776.43	50.84
776.868	51.01
777.307	51.88
777.745	51.92
778.184	50.77
778.622	51.54
779.06	51.14
779.499	50.44
779.937	49.59
780.375	51.99
780.814	52.62
781.252	51.03
781.69	50.93
782.128	51.5
782.566	51.42
783.004	49.84
783.443	51.27
783.881	51.74
784.319	50.53
784.757	51.67
785.195	50.43
785.633	50.69
786.071	51.27
786.508	50.55
786.946	50.67
787.384	50.84
787.822	51.25
788.26	50.07
788.697	51.72
789.135	51.76
789.573	50.75
790.011	51.84
790.448	51.11
790.886	50.47
791.323	50.63
791.761	51.45
792.198	50.73
792.636	50.2
793.073	50.47
793.511	50.88
793.948	52.12
794.386	51.27
794.823	51.46
795.26	50.52
795.698	51.46
796.135	50.96
796.572	50.99
797.009	51.63
797.446	51.58
797.884	51.06
798.321	50.72
798.758	51.11
799.195	50.94
799.632	52.37
800.069	50.53
800.506	50.53
800.943	51.2
801.38	50.9
801.817	50.6
802.254	50.72
802.69	51.24
803.127	50.26
803.564	51.73
804.001	50.89
804.438	51.04
