Data from JCR0034_White2_Reflection_00001.txt Node
Date: Fri Jul 31 15:11:35 ACST 2020
User: Stacey Dix
Spectrometer: MAYP113282
Scans to average: 1
Trigger mode: 0
Integration Time (sec): 1.000000E-1
Electric dark correction enabled: true
Boxcar width: 0
XAxis mode: Wavelengths
Number of Pixels in Spectrum: 2068
>>>>>Begin Spectral Data<<<<<
198.791	0
199.266	19.44
199.74	216.67
200.215	-116.67
200.69	39.31
201.164	35.53
201.639	25.11
202.114	40.04
202.588	41.26
203.063	53.75
203.537	30.04
204.012	31.78
204.486	48.78
204.961	26.8
205.435	32.89
205.909	31.88
206.384	37.23
206.858	23.46
207.332	22.54
207.807	33.47
208.281	30.37
208.755	26.19
209.229	32.25
209.703	24.62
210.177	20.93
210.651	16.49
211.126	34.69
211.6	30.38
212.074	39.36
212.548	25.27
213.021	41.98
213.495	36.26
213.969	24.57
214.443	34.24
214.917	18.96
215.391	21.41
215.864	20.96
216.338	29.35
216.812	37.66
217.286	29.08
217.759	33.73
218.233	30.8
218.706	26.68
219.18	24.44
219.654	28.73
220.127	27.41
220.6	26.55
221.074	21.39
221.547	23.91
222.021	27.5
222.494	24.43
222.967	24.73
223.441	20.24
223.914	27.11
224.387	28.14
224.86	28.95
225.334	20.87
225.807	24.59
226.28	22.33
226.753	24.1
227.226	18.67
227.699	20.24
228.172	24.16
228.645	22.2
229.118	21.21
229.591	20.76
230.064	20.65
230.537	24.05
231.01	18.45
231.482	19.23
231.955	21.84
232.428	21.33
232.901	19.24
233.373	18.52
233.846	21.26
234.319	22.35
234.791	19.89
235.264	19.54
235.736	19.77
236.209	21.64
236.681	18.73
237.154	19.72
237.626	21.21
238.099	19.73
238.571	18.58
239.044	21.96
239.516	19.06
239.988	18.93
240.46	20.15
240.933	19.79
241.405	18.83
241.877	19.82
242.349	19.21
242.821	19.44
243.293	19.02
243.765	17.75
244.237	19.4
244.71	18.54
245.181	16.86
245.653	19.56
246.125	17.1
246.597	18.57
247.069	18.92
247.541	19.15
248.013	17.99
248.485	19.38
248.956	18.61
249.428	18.2
249.9	18.62
250.371	17.99
250.843	17.87
251.315	17.57
251.786	18.01
252.258	17.68
252.729	17.26
253.201	17.23
253.672	16.5
254.144	17.1
254.615	16.48
255.086	17.36
255.558	16.86
256.029	17.19
256.5	17.56
256.972	16.62
257.443	17.05
257.914	16.14
258.385	17.16
258.856	16.17
259.327	17.13
259.799	16.86
260.27	17.01
260.741	16.23
261.212	17.56
261.683	16.93
262.154	17.53
262.624	17.15
263.095	15.82
263.566	15.63
264.037	17.76
264.508	17.43
264.979	16.74
265.449	16.9
265.92	17.17
266.391	16.94
266.861	16.57
267.332	16.9
267.803	16.41
268.273	16.64
268.744	16.68
269.214	15.76
269.685	15.57
270.155	17.5
270.626	16.55
271.096	15.4
271.566	16.7
272.037	15.46
272.507	16.64
272.977	17.18
273.448	17.03
273.918	15.39
274.388	16.65
274.858	17.03
275.328	16.34
275.798	16.18
276.268	16.9
276.738	15.95
277.208	16.52
277.678	16.57
278.148	16.45
278.618	17.52
279.088	16.92
279.558	15.86
280.028	16.21
280.498	16.36
280.968	16.66
281.437	16.88
281.907	16.1
282.377	16.04
282.847	16.45
283.316	15.18
283.786	15.79
284.255	16.19
284.725	15.2
285.194	14.88
285.664	16.15
286.133	15.09
286.603	15.9
287.072	16.64
287.542	15
288.011	15.38
288.48	15.15
288.95	15.15
289.419	15.71
289.888	15.23
290.357	15.32
290.827	15.35
291.296	15.22
291.765	15.37
292.234	15.77
292.703	16.02
293.172	16.24
293.641	15.02
294.11	16.02
294.579	15.72
295.048	15.47
295.517	15.3
295.986	15.34
296.455	16.18
296.923	16.12
297.392	14.86
297.861	16.77
298.33	15.03
298.798	15.34
299.267	16.25
299.736	15.26
300.204	16.42
300.673	15.21
301.141	15.84
301.61	16.04
302.079	15.34
302.547	15.36
303.015	14.56
303.484	15.2
303.952	14.91
304.421	16.12
304.889	15.94
305.357	14.97
305.825	15.11
306.294	15.18
306.762	14.62
307.23	15.99
307.698	15.59
308.166	15.18
308.634	15.33
309.103	15.08
309.571	15.84
310.039	15.04
310.507	15.82
310.975	16.02
311.442	15.12
311.91	15.48
312.378	14.69
312.846	16.42
313.314	15.1
313.782	14.74
314.249	14.98
314.717	15
315.185	14.91
315.652	15.55
316.12	15.73
316.588	15.02
317.055	15.08
317.523	15.35
317.99	15.59
318.458	14.49
318.925	15.9
319.393	15.5
319.86	16.31
320.328	15.73
320.795	16.46
321.262	15.65
321.73	16.49
322.197	17.25
322.664	17.59
323.131	17.09
323.598	18.61
324.066	17.43
324.533	19.47
325	19.68
325.467	19.75
325.934	21.5
326.401	22.57
326.868	23.15
327.335	24.31
327.802	25.31
328.269	25.04
328.735	27.32
329.202	28.05
329.669	29.33
330.136	29.39
330.603	31.45
331.069	31.58
331.536	31.99
332.003	31.97
332.469	33.42
332.936	33.43
333.402	34.09
333.869	32.58
334.336	34.81
334.802	34.52
335.268	34.63
335.735	34.83
336.201	36.2
336.668	36.1
337.134	35.44
337.6	34.46
338.067	34.89
338.533	35.48
338.999	33.32
339.465	34.47
339.931	34.93
340.398	34.54
340.864	34.33
341.33	34.27
341.796	34.87
342.262	34.06
342.728	33.96
343.194	34.28
343.66	34.31
344.126	33.4
344.592	34.67
345.057	33.46
345.523	34.3
345.989	33.37
346.455	33.04
346.921	34.07
347.386	33.87
347.852	34.45
348.318	33.66
348.783	34.57
349.249	33.11
349.714	33.71
350.18	35.17
350.645	32.53
351.111	34.87
351.576	33.46
352.042	33.08
352.507	33.4
352.973	33.05
353.438	31.77
353.903	33.15
354.369	33.84
354.834	34.4
355.299	33.19
355.764	32.95
356.229	32.85
356.695	30.71
357.16	32.03
357.625	32.59
358.09	31.96
358.555	32.24
359.02	33.02
359.485	32.23
359.95	31.4
360.415	31.98
360.879	32.56
361.344	31.43
361.809	32.61
362.274	31.77
362.739	33.11
363.203	34.07
363.668	33.22
364.133	31.03
364.597	32.42
365.062	31.8
365.527	33.54
365.991	32.71
366.456	31.79
366.92	32.01
367.385	31.64
367.849	32.94
368.314	32.58
368.778	32
369.242	33.31
369.707	31.92
370.171	31.12
370.635	33.43
371.1	34.08
371.564	33.29
372.028	32.41
372.492	30.83
372.956	31.35
373.42	32.58
373.884	31.45
374.348	32.28
374.812	32.59
375.276	31.58
375.74	32.42
376.204	31.46
376.668	31.06
377.132	30.96
377.596	31.56
378.06	33.11
378.524	29.88
378.987	32.12
379.451	32.05
379.915	31.25
380.378	32.42
380.842	32.67
381.306	31.65
381.769	31.8
382.233	32.35
382.696	31.88
383.16	32.02
383.623	32.5
384.087	31.81
384.55	32.64
385.014	31.57
385.477	31.91
385.94	31.47
386.404	32.93
386.867	31.09
387.33	30.41
387.793	32.55
388.256	32.42
388.72	32.34
389.183	32.36
389.646	31.88
390.109	32.78
390.572	30.63
391.035	32.77
391.498	31.41
391.961	31.23
392.424	31.44
392.887	32.27
393.35	31.91
393.812	32.06
394.275	31.19
394.738	31.8
395.201	30.97
395.664	31.76
396.126	30.37
396.589	30.86
397.052	33.82
397.514	32.55
397.977	30.05
398.439	30.91
398.902	30.29
399.364	31.33
399.827	31.53
400.289	31.67
400.752	30.62
401.214	32.22
401.676	33.47
402.139	31.21
402.601	30.46
403.063	32.07
403.525	30.08
403.988	29.19
404.45	30
404.912	29.85
405.374	31.82
405.836	29.59
406.298	29.68
406.76	30.66
407.222	28.46
407.684	29.57
408.146	29.5
408.608	28.88
409.07	29.26
409.532	30.5
409.994	29.47
410.456	31.26
410.917	29.43
411.379	30.83
411.841	29.56
412.303	29.67
412.764	29.36
413.226	31.11
413.687	29.03
414.149	30.49
414.611	30.32
415.072	29.61
415.534	29.83
415.995	30.6
416.457	29.83
416.918	30.96
417.379	31.05
417.841	30.74
418.302	31.15
418.763	31.07
419.225	31.63
419.686	29.68
420.147	31.39
420.608	31.26
421.069	31.84
421.53	32.01
421.991	30.54
422.453	30.97
422.914	32.3
423.375	29.93
423.836	31.14
424.297	32.45
424.757	31.85
425.218	32.71
425.679	30.73
426.14	33.34
426.601	32.52
427.062	30.91
427.522	34.1
427.983	31.61
428.444	30.94
428.904	33.4
429.365	32.65
429.826	32.3
430.286	32.6
430.747	31.22
431.207	32.85
431.668	31.77
432.128	32.82
432.589	33.62
433.049	34.9
433.509	31.61
433.97	32.45
434.43	32.12
434.89	34.68
435.351	33.38
435.811	33.16
436.271	31.65
436.731	32.68
437.191	32.93
437.651	33.3
438.112	35.4
438.572	33.29
439.032	33.91
439.492	32.37
439.952	34.37
440.412	32
440.871	33.36
441.331	33.09
441.791	33.57
442.251	34.97
442.711	34.62
443.171	36.02
443.63	35.24
444.09	34.26
444.55	33.15
445.009	34.63
445.469	34.94
445.929	32.7
446.388	34.72
446.848	34.92
447.307	33.46
447.767	34.14
448.226	33.34
448.686	33.7
449.145	36.13
449.604	33.02
450.064	34
450.523	33.1
450.982	33.66
451.442	33.31
451.901	34.46
452.36	33.95
452.819	35.03
453.278	32.05
453.737	35.54
454.197	33.36
454.656	35.99
455.115	35.53
455.574	35.24
456.033	35.23
456.492	34.25
456.95	33.72
457.409	34.93
457.868	35.26
458.327	34.54
458.786	35.14
459.245	35.77
459.703	34.36
460.162	35.3
460.621	35.08
461.079	32.47
461.538	34.38
461.997	34.99
462.455	33.98
462.914	34.21
463.372	31.69
463.831	36.22
464.289	34.1
464.748	34.81
465.206	34.81
465.664	35.55
466.123	35.2
466.581	33.48
467.039	34.09
467.497	35.66
467.956	37.01
468.414	31.52
468.872	34.47
469.33	32.19
469.788	33.45
470.246	34.95
470.704	33.32
471.162	35.21
471.62	35.06
472.078	33.22
472.536	35.74
472.994	35.26
473.452	35.35
473.91	34.16
474.368	33.32
474.826	33.39
475.283	34.49
475.741	34.62
476.199	31.48
476.656	34
477.114	36.65
477.572	33.17
478.029	34
478.487	34.66
478.944	36.5
479.402	34.6
479.859	33.8
480.317	35.91
480.774	35.01
481.232	36.29
481.689	34.44
482.146	34.23
482.604	35.05
483.061	32.28
483.518	35.23
483.975	35.77
484.433	31.96
484.89	34.58
485.347	36.38
485.804	32.23
486.261	36.37
486.718	35.43
487.175	34.56
487.632	34.67
488.089	33.5
488.546	32.66
489.003	34.18
489.46	34.96
489.917	35.48
490.373	34.53
490.83	32.49
491.287	32.62
491.744	32.93
492.2	37.08
492.657	34.52
493.114	34.54
493.57	36.97
494.027	34.27
494.484	36.17
494.94	34.95
495.397	35.99
495.853	34.74
496.31	32.24
496.766	34.62
497.222	34.05
497.679	33.85
498.135	33.37
498.591	32.36
499.048	32.01
499.504	34.93
499.96	34.57
500.416	34.07
500.872	32.54
501.329	35.82
501.785	33.51
502.241	35.34
502.697	34.98
503.153	32.68
503.609	33.51
504.065	34.28
504.521	32.48
504.977	32.96
505.432	34.69
505.888	35.58
506.344	34.39
506.8	34.7
507.256	34.99
507.711	34.92
508.167	31.87
508.623	35.68
509.078	34.35
509.534	33.9
509.99	33.89
510.445	35.48
510.901	35.38
511.356	33.49
511.812	31.84
512.267	36.96
512.722	33.62
513.178	34.55
513.633	34.99
514.089	34.61
514.544	34.74
514.999	35.38
515.454	31.84
515.91	34.67
516.365	32.67
516.82	35.98
517.275	34.8
517.73	33.68
518.185	33.91
518.64	34.98
519.095	34.74
519.55	33.4
520.005	35.4
520.46	32.54
520.915	34.45
521.37	33.07
521.825	32.8
522.28	32.99
522.734	35.15
523.189	34.49
523.644	32.58
524.099	33.34
524.553	34.57
525.008	32.14
525.462	34.48
525.917	32.1
526.372	33.99
526.826	32.75
527.281	36.73
527.735	32.16
528.19	32.73
528.644	32.98
529.098	33.06
529.553	33.72
530.007	33.87
530.461	33.26
530.916	33.5
531.37	32.89
531.824	34.02
532.278	31.68
532.732	34.49
533.186	32.74
533.641	34.78
534.095	33.72
534.549	33.66
535.003	34.5
535.457	32.83
535.911	34.82
536.365	33.68
536.818	30.96
537.272	34.32
537.726	33.12
538.18	32.34
538.634	34.14
539.087	32.87
539.541	33.09
539.995	33.03
540.449	32.72
540.902	34.93
541.356	32.57
541.809	32.71
542.263	32.7
542.716	32.54
543.17	33.27
543.623	32.64
544.077	33.22
544.53	34.1
544.984	31.22
545.437	31.71
545.89	34.79
546.344	33.37
546.797	32.25
547.25	32.33
547.703	32.21
548.157	34.32
548.61	31.84
549.063	32.42
549.516	32.96
549.969	32.11
550.422	34.7
550.875	32.56
551.328	33.66
551.781	33.73
552.234	32.19
552.687	32.21
553.14	34.58
553.592	32.78
554.045	34.65
554.498	33.53
554.951	32.44
555.404	33.1
555.856	32.32
556.309	33.62
556.762	33.61
557.214	33.12
557.667	32.07
558.119	33.03
558.572	33.6
559.024	31.71
559.477	33.94
559.929	32.58
560.382	31.6
560.834	33.5
561.286	33.11
561.739	33.14
562.191	32.71
562.643	32.39
563.095	33.84
563.548	33.32
564	33.88
564.452	33.89
564.904	32.49
565.356	33.28
565.808	32.51
566.26	32.42
566.712	32.51
567.164	33.37
567.616	33.34
568.068	32.69
568.52	33.25
568.972	33.12
569.424	32.94
569.876	32.07
570.327	33.57
570.779	32.8
571.231	33.35
571.682	33.48
572.134	33.06
572.586	33.27
573.037	33.17
573.489	33.16
573.941	33
574.392	33.9
574.844	34.24
575.295	33.4
575.746	32.27
576.198	33.08
576.649	31.36
577.101	34.27
577.552	32.6
578.003	32.27
578.454	32.28
578.906	33.91
579.357	33.37
579.808	33.26
580.259	33.84
580.71	32.61
581.161	32.83
581.612	32.89
582.064	32.78
582.515	32.31
582.965	33.47
583.416	32.87
583.867	32.86
584.318	33.73
584.769	32.45
585.22	33.75
585.671	34.22
586.122	33.87
586.572	32.77
587.023	33.08
587.474	33.52
587.924	33.84
588.375	33.72
588.826	32.77
589.276	33.38
589.727	33.32
590.177	32.24
590.628	34.23
591.078	32.62
591.529	32.39
591.979	33.31
592.429	31.94
592.88	33.93
593.33	32.23
593.78	32.98
594.231	33.54
594.681	33.23
595.131	32.06
595.581	32.63
596.031	32.74
596.481	34.31
596.932	32.29
597.382	33.75
597.832	33.13
598.282	33.28
598.732	34.14
599.182	32.67
599.632	32.81
600.081	33.86
600.531	32.32
600.981	32.45
601.431	32.02
601.881	33.21
602.33	33.31
602.78	32.2
603.23	33.74
603.679	32.43
604.129	34.15
604.579	33.14
605.028	32.81
605.478	32.68
605.927	33.15
606.377	32.1
606.826	33.25
607.276	34.1
607.725	33.33
608.175	34.14
608.624	32.54
609.073	31.93
609.522	33.33
609.972	32.72
610.421	32.41
610.87	32.88
611.319	33.82
611.768	33.03
612.218	33.21
612.667	33.24
613.116	34.33
613.565	32.15
614.014	33.03
614.463	33.87
614.912	33.21
615.361	31.97
615.81	33.56
616.258	32.09
616.707	32.91
617.156	32.16
617.605	33.27
618.054	32.19
618.502	32.48
618.951	33.39
619.4	32.95
619.848	33.09
620.297	32.82
620.745	33.41
621.194	32.73
621.642	32.05
622.091	32.89
622.539	33.2
622.988	31.06
623.436	32.51
623.885	32.55
624.333	32.63
624.781	33.19
625.23	32.02
625.678	32.77
626.126	32.15
626.574	32.52
627.022	31.89
627.471	32.27
627.919	33.02
628.367	33.57
628.815	33.21
629.263	32.55
629.711	31.81
630.159	32.27
630.607	32.72
631.055	33.04
631.503	32.63
631.95	32.81
632.398	32.55
632.846	31.55
633.294	33.36
633.742	31.64
634.189	32.36
634.637	32.63
635.085	32.29
635.532	31.43
635.98	33
636.427	32.38
636.875	33.36
637.323	32.64
637.77	31.77
638.217	32.46
638.665	31.57
639.112	33.49
639.56	31.38
640.007	33.46
640.454	32.57
640.902	32.14
641.349	32.77
641.796	33.41
642.243	32.72
642.69	31.36
643.138	32.76
643.585	33.32
644.032	32.8
644.479	32.37
644.926	31.54
645.373	32.53
645.82	32.78
646.267	31.34
646.714	33.01
647.161	32.23
647.607	33.22
648.054	33.06
648.501	32.42
648.948	32.25
649.395	33.31
649.841	32.29
650.288	33.2
650.735	32.04
651.181	32.62
651.628	34.21
652.075	31.81
652.521	32.73
652.968	32.57
653.414	32.77
653.861	33.15
654.307	32.11
654.753	32.6
655.2	32.69
655.646	32.45
656.092	33.41
656.539	32.3
656.985	33.22
657.431	32.35
657.877	32.75
658.324	31.13
658.77	31.58
659.216	33.11
659.662	32.22
660.108	32.62
660.554	32.06
661	33.41
661.446	32.21
661.892	32.63
662.338	32.34
662.784	33.55
663.23	32.45
663.675	32.65
664.121	32.17
664.567	32.11
665.013	32
665.458	32.35
665.904	32.72
666.35	32
666.795	31.84
667.241	33.73
667.687	32.96
668.132	32.55
668.578	32.44
669.023	32.72
669.469	32.74
669.914	31.52
670.359	32.55
670.805	32.69
671.25	33.23
671.695	32.11
672.141	32.34
672.586	32.16
673.031	33.17
673.476	33.25
673.922	32.89
674.367	33.28
674.812	32.75
675.257	32.09
675.702	33.33
676.147	32.29
676.592	32.58
677.037	32.5
677.482	32.92
677.927	32.39
678.372	33.14
678.817	33.15
679.261	32.22
679.706	33.23
680.151	32.45
680.596	33.87
681.04	32.5
681.485	33.64
681.93	32.48
682.374	32.67
682.819	32.43
683.264	32.21
683.708	32.46
684.153	32.95
684.597	31.42
685.042	32.71
685.486	32.38
685.93	32.9
686.375	31.81
686.819	32.31
687.263	32.41
687.708	32.06
688.152	33.37
688.596	32.86
689.04	32.5
689.485	32.7
689.929	32.71
690.373	33.39
690.817	32.94
691.261	31.86
691.705	32.72
692.149	32.86
692.593	32.35
693.037	32.77
693.481	32.55
693.925	32.7
694.369	33.24
694.812	31.72
695.256	32.62
695.7	32.49
696.144	33.03
696.587	32.24
697.031	32.37
697.475	32.63
697.918	32.37
698.362	33.2
698.806	32.5
699.249	33.09
699.693	32.64
700.136	33
700.58	33.06
701.023	31.94
701.466	31.72
701.91	32.77
702.353	32.79
702.796	33.12
703.24	32.77
703.683	33.05
704.126	33.15
704.569	32.14
705.013	32.73
705.456	32.77
705.899	32.62
706.342	32.77
706.785	31.49
707.228	33.31
707.671	32.35
708.114	33.43
708.557	32.4
709	32.75
709.443	32.45
709.886	32.07
710.328	33.04
710.771	32.38
711.214	32.02
711.657	32.65
712.099	33.01
712.542	32.98
712.985	33.34
713.427	32.63
713.87	33.36
714.313	32.39
714.755	32.75
715.198	33.15
715.64	32.74
716.083	33.05
716.525	32.59
716.967	31.95
717.41	32.54
717.852	33.21
718.295	32.4
718.737	32.68
719.179	31.83
719.621	32.64
720.063	33.35
720.506	31.92
720.948	32.77
721.39	31.96
721.832	32.15
722.274	32.99
722.716	32.62
723.158	32.62
723.6	32.21
724.042	32.12
724.484	32
724.926	32.85
725.368	31.98
725.81	32.47
726.251	31.93
726.693	31.99
727.135	32.58
727.577	32.8
728.018	32.73
728.46	31.93
728.902	32.75
729.343	33.23
729.785	32.78
730.226	33.19
730.668	32.01
731.109	33.55
731.551	32.48
731.992	31.88
732.434	31.59
732.875	32.23
733.316	32.72
733.758	32.17
734.199	33.04
734.64	32.47
735.081	32.98
735.523	32.24
735.964	32.25
736.405	32.57
736.846	32.41
737.287	31.94
737.728	32.96
738.169	32.16
738.61	32.13
739.051	32.67
739.492	32.02
739.933	32.87
740.374	32.49
740.815	32.62
741.256	32.2
741.696	33.04
742.137	32.45
742.578	33.16
743.019	32.36
743.459	32.3
743.9	33.28
744.341	31.88
744.781	33.64
745.222	32.59
745.662	32.52
746.103	32.51
746.543	32.27
746.984	32.82
747.424	32.67
747.865	31.97
748.305	32.35
748.745	32.14
749.186	32.27
749.626	32.51
750.066	32.36
750.506	32.56
750.947	33.1
751.387	33.19
751.827	32.78
752.267	33.05
752.707	32.96
753.147	32.62
753.587	33.01
754.027	32.4
754.467	32.79
754.907	33
755.347	32.87
755.787	32.28
756.227	32.74
756.667	32.74
757.107	32.63
757.546	33.21
757.986	32.69
758.426	32.7
758.865	32.57
759.305	31.93
759.745	32.85
760.184	33.41
760.624	33.47
761.063	32.68
761.503	33.06
761.943	32.67
762.382	32.61
762.821	32.72
763.261	33.57
763.7	32.69
764.14	32.24
764.579	32.88
765.018	33.25
765.457	33.01
765.897	33.17
766.336	32.56
766.775	32.79
767.214	32.72
767.653	31.77
768.092	33.35
768.531	32.6
768.97	32.8
769.409	32.87
769.848	32.73
770.287	32.19
770.726	33.79
771.165	32.84
771.604	32.67
772.043	32.48
772.482	33.39
772.92	32.39
773.359	33.16
773.798	32.99
774.237	33.3
774.675	32.97
775.114	32.6
775.553	33.09
775.991	32.75
776.43	32.69
776.868	32.82
777.307	32.77
777.745	32.97
778.184	33.28
778.622	32.94
779.06	32.58
779.499	33.25
779.937	33.65
780.375	32.1
780.814	33.45
781.252	32.6
781.69	32.6
782.128	32.23
782.566	32.68
783.004	32.86
783.443	32.72
783.881	33.4
784.319	33
784.757	33.52
785.195	32.96
785.633	32.74
786.071	32.27
786.508	32.77
786.946	32.91
787.384	32.99
787.822	32.98
788.26	33.59
788.697	32.26
789.135	32.14
789.573	32.83
790.011	33.33
790.448	33.17
790.886	32.99
791.323	33.87
791.761	32.09
792.198	32.68
792.636	32.66
793.073	32.82
793.511	32.96
793.948	33.27
794.386	32.44
794.823	33.52
795.26	33.51
795.698	33.2
796.135	32.78
796.572	33.24
797.009	33.23
797.446	32.61
797.884	32.69
798.321	33.02
798.758	33.4
799.195	33.32
799.632	33.36
800.069	33.66
800.506	33.13
800.943	33.72
801.38	33.24
801.817	33.37
802.254	33.38
802.69	32.92
803.127	33.62
803.564	33.4
804.001	33.53
804.438	33.38
804.874	32.8
805.311	32.93
