Data from JCR0015_YellowVentral_Reflection_00003.txt Node
Date: Thu Jul 23 15:25:45 ACST 2020
User: Stacey Dix
Spectrometer: MAYP113282
Scans to average: 1
Trigger mode: 0
Integration Time (sec): 1.000000E-1
Electric dark correction enabled: true
Boxcar width: 0
XAxis mode: Wavelengths
Number of Pixels in Spectrum: 2068
>>>>>Begin Spectral Data<<<<<
198.791	-1066.67
199.266	466.67
199.74	76.19
200.215	38.1
200.69	69.08
201.164	55.11
201.639	41.31
202.114	52.01
202.588	68.31
203.063	22.06
203.537	43.01
204.012	55.43
204.486	31.18
204.961	70.5
205.435	35.23
205.909	85.61
206.384	64.85
206.858	69.42
207.332	39.42
207.807	40.92
208.281	69.59
208.755	44.44
209.229	37.66
209.703	31.83
210.177	50.71
210.651	72.51
211.126	36.78
211.6	28.71
212.074	35.4
212.548	51.44
213.021	63.36
213.495	74.25
213.969	28.01
214.443	28.94
214.917	80.38
215.391	54.04
215.864	54.58
216.338	40.07
216.812	64.27
217.286	50.41
217.759	47.66
218.233	65.27
218.706	55.11
219.18	37.48
219.654	73.03
220.127	59.8
220.6	57.76
221.074	51.85
221.547	49.06
222.021	58.59
222.494	66.67
222.967	43.08
223.441	75.97
223.914	49.27
224.387	72.8
224.86	67.71
225.334	62.06
225.807	74.27
226.28	50.97
226.753	69.17
227.226	67.62
227.699	71.64
228.172	65.27
228.645	58.91
229.118	63.98
229.591	60.13
230.064	64.82
230.537	61.22
231.01	63.18
231.482	64.22
231.955	62
232.428	59.83
232.901	70.51
233.373	59.7
233.846	65.76
234.319	52.97
234.791	59.1
235.264	69.72
235.736	56.22
236.209	59.15
236.681	55.85
237.154	52.48
237.626	57.62
238.099	53.86
238.571	57.81
239.044	49.59
239.516	54.29
239.988	56.32
240.46	55.23
240.933	53.79
241.405	52.92
241.877	54
242.349	50.82
242.821	55.21
243.293	55.46
243.765	46.15
244.237	57.84
244.71	53.75
245.181	53.22
245.653	54.43
246.125	52.53
246.597	48.97
247.069	54.73
247.541	48.74
248.013	49.1
248.485	50.05
248.956	51.53
249.428	45.37
249.9	49.56
250.371	47.47
250.843	50.83
251.315	49.25
251.786	45.33
252.258	51.48
252.729	49.83
253.201	47.36
253.672	46.31
254.144	48.19
254.615	45.09
255.086	47.26
255.558	47.85
256.029	44.53
256.5	45.27
256.972	44.15
257.443	47.41
257.914	47.7
258.385	45.78
258.856	43.58
259.327	46.53
259.799	47.92
260.27	44.34
260.741	44.44
261.212	45.29
261.683	44.6
262.154	47.48
262.624	46.16
263.095	42.14
263.566	43.49
264.037	44.42
264.508	47.66
264.979	44
265.449	44.29
265.92	44.77
266.391	45.58
266.861	44.31
267.332	43.81
267.803	42.77
268.273	46.49
268.744	46.04
269.214	44.52
269.685	44.79
270.155	40.56
270.626	44.13
271.096	45.06
271.566	45.88
272.037	42.64
272.507	45.35
272.977	43.28
273.448	45.88
273.918	44.48
274.388	44.76
274.858	45.77
275.328	46.05
275.798	42.74
276.268	46.8
276.738	46.02
277.208	44.34
277.678	43.62
278.148	42.45
278.618	44.79
279.088	42.74
279.558	46.31
280.028	42.47
280.498	45.35
280.968	42.72
281.437	44.78
281.907	44
282.377	47.47
282.847	45.36
283.316	41.24
283.786	43.12
284.255	40.68
284.725	43.64
285.194	43.98
285.664	41.21
286.133	40.73
286.603	38.9
287.072	43.6
287.542	44.88
288.011	42.22
288.48	45.09
288.95	40.86
289.419	40.83
289.888	41.71
290.357	44.26
290.827	42.09
291.296	42.51
291.765	38.9
292.234	42.01
292.703	42.53
293.172	44.78
293.641	41.66
294.11	41.84
294.579	42.14
295.048	39.23
295.517	43.03
295.986	39.51
296.455	41.9
296.923	41.15
297.392	42.56
297.861	39.93
298.33	40.52
298.798	40.96
299.267	42.65
299.736	42.72
300.204	40.62
300.673	40.9
301.141	41.73
301.61	41.68
302.079	42.32
302.547	40.98
303.015	41.64
303.484	42.02
303.952	40.59
304.421	41.66
304.889	39.81
305.357	43.86
305.825	43.01
306.294	40.72
306.762	40.7
307.23	42.22
307.698	42.08
308.166	37.54
308.634	40.52
309.103	40.72
309.571	39.68
310.039	41.03
310.507	40.66
310.975	40.41
311.442	41.17
311.91	43.04
312.378	41.97
312.846	40.02
313.314	40.79
313.782	41.38
314.249	40.4
314.717	40.68
315.185	42.89
315.652	37.7
316.12	39.36
316.588	40.21
317.055	39.87
317.523	39.07
317.99	40.36
318.458	42.04
318.925	41.58
319.393	40.53
319.86	38.87
320.328	38.58
320.795	40.98
321.262	39.67
321.73	39.64
322.197	38.47
322.664	40.44
323.131	39.46
323.598	41.46
324.066	41.18
324.533	39.45
325	44.42
325.467	43.02
325.934	41.52
326.401	45.52
326.868	44.66
327.335	41.82
327.802	44.06
328.269	45.1
328.735	42.88
329.202	44.56
329.669	46.34
330.136	47.04
330.603	46.71
331.069	49.64
331.536	48.08
332.003	48.48
332.469	51.39
332.936	49.48
333.402	47.92
333.869	52.37
334.336	52.59
334.802	50.73
335.268	51.55
335.735	48.69
336.201	52.61
336.668	49.89
337.134	51.19
337.6	48.48
338.067	51.72
338.533	50.84
338.999	50.79
339.465	51.3
339.931	50.12
340.398	52.56
340.864	52.01
341.33	54.73
341.796	47.65
342.262	50.61
342.728	53.33
343.194	52.41
343.66	49.96
344.126	49.58
344.592	49.41
345.057	51.49
345.523	50.97
345.989	47.76
346.455	53.26
346.921	48.16
347.386	52.12
347.852	48.05
348.318	48.81
348.783	48.54
349.249	48.71
349.714	48.67
350.18	45.54
350.645	50.23
351.111	48.17
351.576	46.52
352.042	49.73
352.507	46.13
352.973	46.82
353.438	47.76
353.903	48.47
354.369	48.3
354.834	46.56
355.299	46.39
355.764	45.81
356.229	45.4
356.695	46.69
357.16	46.59
357.625	47.06
358.09	48.81
358.555	48.57
359.02	47.68
359.485	44.72
359.95	43.93
360.415	47.18
360.879	48.34
361.344	45.76
361.809	46.62
362.274	45.95
362.739	42.81
363.203	46.06
363.668	44.4
364.133	42.74
364.597	44.35
365.062	43.99
365.527	45.71
365.991	44.7
366.456	43.79
366.92	44.96
367.385	43.75
367.849	43.86
368.314	43.33
368.778	44.37
369.242	44
369.707	43.14
370.171	45.66
370.635	40.92
371.1	42.85
371.564	43.88
372.028	44.4
372.492	43.83
372.956	43.66
373.42	41.41
373.884	42.7
374.348	43.46
374.812	41.59
375.276	41.71
375.74	42.5
376.204	41.52
376.668	41.71
377.132	42.69
377.596	41.8
378.06	39.8
378.524	39.73
378.987	40.51
379.451	40.99
379.915	40.97
380.378	42.01
380.842	41.52
381.306	41.19
381.769	38.6
382.233	38.64
382.696	41.31
383.16	41.62
383.623	40.18
384.087	39.65
384.55	40.43
385.014	38.92
385.477	39.73
385.94	38.86
386.404	36.78
386.867	39.56
387.33	39.94
387.793	39.87
388.256	36.49
388.72	35.96
389.183	40.99
389.646	39.24
390.109	38.76
390.572	36.08
391.035	37.91
391.498	39.15
391.961	36.61
392.424	37.05
392.887	37.12
393.35	36.97
393.812	39.19
394.275	36.74
394.738	38.54
395.201	37.93
395.664	34.96
396.126	36.43
396.589	35.37
397.052	36.81
397.514	35.08
397.977	32.1
398.439	38.12
398.902	35.04
399.364	36.11
399.827	35.77
400.289	35.84
400.752	34.42
401.214	34.36
401.676	33.65
402.139	33.42
402.601	37.79
403.063	34.04
403.525	33.65
403.988	34.4
404.45	34.48
404.912	34.58
405.374	33.81
405.836	32.89
406.298	32.39
406.76	34.26
407.222	33.57
407.684	33.28
408.146	33.57
408.608	32.51
409.07	33.74
409.532	33.7
409.994	30.7
410.456	32.69
410.917	32.9
411.379	33.34
411.841	30.67
412.303	34.85
412.764	31.6
413.226	32.47
413.687	31.23
414.149	32.11
414.611	33.13
415.072	31.29
415.534	30.65
415.995	34.06
416.457	32.73
416.918	32.32
417.379	32.71
417.841	33.23
418.302	33.06
418.763	34.61
419.225	33.34
419.686	32.38
420.147	31.62
420.608	31.18
421.069	31.67
421.53	33.53
421.991	32.11
422.453	31.52
422.914	33.64
423.375	33.4
423.836	34.2
424.297	32.29
424.757	34.99
425.218	33.23
425.679	35.37
426.14	32.79
426.601	32.14
427.062	31.17
427.522	34.07
427.983	31.94
428.444	32.56
428.904	35.13
429.365	35.15
429.826	36.04
430.286	30.61
430.747	33.73
431.207	33.45
431.668	32.66
432.128	31.04
432.589	34.98
433.049	32.01
433.509	35.83
433.97	32.36
434.43	34.03
434.89	34.25
435.351	32.22
435.811	33.86
436.271	37.32
436.731	31.73
437.191	32.78
437.651	34.86
438.112	35.62
438.572	35.92
439.032	34.46
439.492	34.18
439.952	33.01
440.412	32.56
440.871	34.1
441.331	32.05
441.791	35.11
442.251	34.58
442.711	30.83
443.171	34.01
443.63	33.35
444.09	36.59
444.55	31.94
445.009	33.44
445.469	32.9
445.929	32.47
446.388	36.75
446.848	37.66
447.307	34.86
447.767	33.59
448.226	34.7
448.686	31.9
449.145	38.4
449.604	35.16
450.064	33.07
450.523	33
450.982	34.68
451.442	36.54
451.901	36.16
452.36	34.95
452.819	35.49
453.278	36.04
453.737	36.01
454.197	35.66
454.656	35.77
455.115	37.3
455.574	35.47
456.033	38.17
456.492	38.01
456.95	37.21
457.409	38.57
457.868	40.63
458.327	37.68
458.786	36.69
459.245	38.26
459.703	36.87
460.162	36.76
460.621	37.2
461.079	39.07
461.538	38.37
461.997	35.54
462.455	37.76
462.914	35.89
463.372	38.29
463.831	35.78
464.289	40.48
464.748	35.11
465.206	39.49
465.664	38.25
466.123	41.39
466.581	40.56
467.039	38.45
467.497	38.42
467.956	39.4
468.414	34.23
468.872	39.5
469.33	40.31
469.788	41.88
470.246	40.25
470.704	37.85
471.162	43.52
471.62	42.21
472.078	43.18
472.536	44.54
472.994	42.61
473.452	41.74
473.91	43.27
474.368	44.05
474.826	42.17
475.283	42.68
475.741	41.85
476.199	45.36
476.656	44.75
477.114	44.29
477.572	45.29
478.029	43.79
478.487	45.47
478.944	44.23
479.402	42.75
479.859	48.83
480.317	50.26
480.774	47.22
481.232	45.43
481.689	48.75
482.146	49.2
482.604	49.62
483.061	49.83
483.518	51.97
483.975	49.17
484.433	46.94
484.89	50.81
485.347	49.94
485.804	51.14
486.261	53.98
486.718	50.1
487.175	50.55
487.632	55.22
488.089	55.46
488.546	50.26
489.003	50.32
489.46	53.3
489.917	56.23
490.373	53.85
490.83	56.34
491.287	56.21
491.744	56.47
492.2	55.49
492.657	52.93
493.114	52.13
493.57	55.29
494.027	55.48
494.484	54.76
494.94	55.48
495.397	57.58
495.853	59.85
496.31	59.21
496.766	56.4
497.222	58.96
497.679	60.44
498.135	60.37
498.591	56.3
499.048	56.03
499.504	60.71
499.96	55.27
500.416	58.04
500.872	55.78
501.329	61.59
501.785	63.66
502.241	57.64
502.697	60.78
503.153	60.4
503.609	60.11
504.065	59.8
504.521	61.25
504.977	60.11
505.432	62.64
505.888	60.44
506.344	58.64
506.8	62.23
507.256	64.62
507.711	62.34
508.167	66.55
508.623	61.1
509.078	60.44
509.534	65.69
509.99	63.44
510.445	62.59
510.901	63.33
511.356	63.83
511.812	60.66
512.267	60.8
512.722	63.55
513.178	61.31
513.633	63.56
514.089	60.94
514.544	61.99
514.999	60.24
515.454	65.66
515.91	66.01
516.365	62.47
516.82	63.6
517.275	62.85
517.73	61
518.185	63.16
518.64	63.62
519.095	63.74
519.55	60.44
520.005	63.55
520.46	62.64
520.915	65.61
521.37	67.08
521.825	64.7
522.28	62.53
522.734	61.61
523.189	64.02
523.644	65.75
524.099	62.22
524.553	65.4
525.008	63.93
525.462	62.58
525.917	63.31
526.372	62.04
526.826	64.83
527.281	63.06
527.735	61.54
528.19	64.28
528.644	63.79
529.098	63.66
529.553	63.77
530.007	60.61
530.461	63.95
530.916	64.07
531.37	63.7
531.824	68.59
532.278	61.77
532.732	61.66
533.186	65.77
533.641	63.58
534.095	61.52
534.549	63.16
535.003	63.66
535.457	62.76
535.911	64.51
536.365	65.38
536.818	65.92
537.272	64.7
537.726	61.44
538.18	66.3
538.634	66.13
539.087	63.32
539.541	67.15
539.995	65.06
540.449	64.34
540.902	63.16
541.356	67.63
541.809	64.31
542.263	65.23
542.716	63.82
543.17	68.05
543.623	65.21
544.077	63.7
544.53	64.14
544.984	64.44
545.437	65.62
545.89	65.28
546.344	65.9
546.797	65.38
547.25	66.64
547.703	67.56
548.157	63.46
548.61	64.19
549.063	68.48
549.516	64.5
549.969	65.07
550.422	65.55
550.875	65.58
551.328	64.96
551.781	67.57
552.234	64.46
552.687	67.16
553.14	67.24
553.592	66.5
554.045	65.04
554.498	68.58
554.951	67.62
555.404	65.6
555.856	66.82
556.309	69.25
556.762	70.78
557.214	68.32
557.667	66.6
558.119	66.49
558.572	68.15
559.024	71.54
559.477	66.79
559.929	68.56
560.382	66.87
560.834	66.31
561.286	66.59
561.739	66.43
562.191	66.11
562.643	69.25
563.095	69.56
563.548	68.93
564	67.32
564.452	69.48
564.904	71.86
565.356	68.58
565.808	68.26
566.26	71.48
566.712	67.22
567.164	69.17
567.616	67.73
568.068	65.81
568.52	66.82
568.972	65.9
569.424	68.36
569.876	69.44
570.327	67.3
570.779	67.5
571.231	64
571.682	69.17
572.134	67.52
572.586	66.11
573.037	67.62
573.489	67.31
573.941	68.59
574.392	66.23
574.844	68.05
575.295	68.47
575.746	69.14
576.198	67.99
576.649	69.2
577.101	69.34
577.552	68.98
578.003	66.14
578.454	68.59
578.906	68.83
579.357	67.88
579.808	68.85
580.259	68.79
580.71	68.06
581.161	68.61
581.612	70.41
582.064	70.09
582.515	68.57
582.965	69.87
583.416	70.09
583.867	70.4
584.318	68.44
584.769	69.73
585.22	67.81
585.671	69.63
586.122	69.42
586.572	67.33
587.023	69
587.474	70.4
587.924	69.93
588.375	72.81
588.826	70.99
589.276	69.56
589.727	68.48
590.177	72.19
590.628	73.78
591.078	72.98
591.529	68.05
591.979	73.89
592.429	72.11
592.88	71.67
593.33	73.89
593.78	70.68
594.231	70.31
594.681	74.52
595.131	70.64
595.581	72.67
596.031	71.95
596.481	72.95
596.932	70.45
597.382	74.2
597.832	70.2
598.282	73.48
598.732	70.39
599.182	72.4
599.632	71.83
600.081	72.75
600.531	71.85
600.981	71.89
601.431	71.64
601.881	71.19
602.33	73.59
602.78	70.88
603.23	72.98
603.679	74.49
604.129	68.71
604.579	71.59
605.028	72.89
605.478	71.8
605.927	74.32
606.377	70.78
606.826	72.42
607.276	73.14
607.725	73.1
608.175	71.77
608.624	71.5
609.073	70.98
609.522	71.01
609.972	71.29
610.421	75.26
610.87	74.37
611.319	70
611.768	71.71
612.218	74.53
612.667	69.89
613.116	72.42
613.565	70.34
614.014	70.54
614.463	71.75
614.912	70.29
615.361	71.74
615.81	72.61
616.258	71.23
616.707	72.46
617.156	72.91
617.605	73.99
618.054	71.51
618.502	72.58
618.951	72.11
619.4	72.55
619.848	73.57
620.297	73.51
620.745	73.59
621.194	71.8
621.642	74.42
622.091	72.24
622.539	72.09
622.988	71.68
623.436	72.56
623.885	71.06
624.333	70.8
624.781	72.66
625.23	72.52
625.678	71.01
626.126	71.02
626.574	73.64
627.022	73.68
627.471	72.72
627.919	72.66
628.367	70.68
628.815	73.13
629.263	73.05
629.711	73.14
630.159	71.51
630.607	71.71
631.055	73.19
631.503	74.2
631.95	73.09
632.398	73.68
632.846	72.71
633.294	72.28
633.742	71.79
634.189	72.91
634.637	73.9
635.085	72.92
635.532	73.95
635.98	71.31
636.427	72.28
636.875	73.27
637.323	70.39
637.77	71.97
638.217	71.16
638.665	72.88
639.112	70.91
639.56	72.67
640.007	73.82
640.454	71.97
640.902	72.76
641.349	75.9
641.796	70.57
642.243	72.69
642.69	71.24
643.138	72.42
643.585	73.4
644.032	71.51
644.479	72.64
644.926	72.72
645.373	73.2
645.82	74.49
646.267	73.73
646.714	73.53
647.161	72.87
647.607	72.02
648.054	71.55
648.501	73.26
648.948	73.51
649.395	70.71
649.841	70.38
650.288	74.83
650.735	73.94
651.181	71.26
651.628	72.13
652.075	72.57
652.521	73.22
652.968	71.15
653.414	71.72
653.861	73.32
654.307	73.71
654.753	72.19
655.2	73.86
655.646	71.55
656.092	69.58
656.539	72.6
656.985	70.8
657.431	72.36
657.877	72.54
658.324	71.75
658.77	73.05
659.216	72.96
659.662	72.38
660.108	73.88
660.554	74.3
661	71.28
661.446	69.72
661.892	73.11
662.338	74.14
662.784	71.53
663.23	72.81
663.675	71.92
664.121	72.29
664.567	74.15
665.013	72.29
665.458	72.58
665.904	72.36
666.35	71.81
666.795	72.96
667.241	73.57
667.687	74.13
668.132	73.11
668.578	70.25
669.023	72.92
669.469	73.74
669.914	72.5
670.359	73.92
670.805	72.39
671.25	72.34
671.695	72.51
672.141	73.08
672.586	73.83
673.031	71.6
673.476	73.65
673.922	71.38
674.367	72.42
674.812	72.16
675.257	72.3
675.702	73.22
676.147	74.04
676.592	72.75
677.037	73.07
677.482	73.35
677.927	72
678.372	73.86
678.817	71.45
679.261	72.19
679.706	72.32
680.151	72.24
680.596	72.29
681.04	72.33
681.485	71.92
681.93	73.86
682.374	73.85
682.819	71.95
683.264	70.86
683.708	71.7
684.153	72.18
684.597	72.94
685.042	72.02
685.486	72.17
685.93	73.14
686.375	71.55
686.819	71.64
687.263	71.19
687.708	72.37
688.152	73.53
688.596	73.13
689.04	74.07
689.485	74.23
689.929	72.35
690.373	72.15
690.817	73.03
691.261	72.99
691.705	71.43
692.149	71.53
692.593	73.04
693.037	71.7
693.481	73.86
693.925	70.65
694.369	71.97
694.812	71.84
695.256	72.94
695.7	71.28
696.144	72.71
696.587	70.77
697.031	72.87
697.475	70.83
697.918	72.59
698.362	72.2
698.806	72.67
699.249	72.21
699.693	70.67
700.136	71.11
700.58	71.96
701.023	72.49
701.466	72.66
701.91	73.4
702.353	71.16
702.796	72.32
703.24	72.11
703.683	71.41
704.126	71.3
704.569	71.85
705.013	71.06
705.456	70.9
705.899	70.85
706.342	72.67
706.785	71.71
707.228	72.35
707.671	70.5
708.114	71.84
708.557	71.44
709	71.6
709.443	69.32
709.886	71.53
710.328	72.52
710.771	71.21
711.214	70.71
711.657	71.51
712.099	72.52
712.542	71.23
712.985	70.82
713.427	71.5
713.87	70.66
714.313	71.55
714.755	70.35
715.198	71.09
715.64	69.66
716.083	69.21
716.525	71.21
716.967	69.49
717.41	69.86
717.852	69.95
718.295	71.31
718.737	72.21
719.179	70.73
719.621	72.97
720.063	71
720.506	72.51
720.948	72.91
721.39	70.48
721.832	69.57
722.274	71.6
722.716	69.86
723.158	71.43
723.6	69.78
724.042	70.51
724.484	70.56
724.926	72.2
725.368	69.28
725.81	70.51
726.251	70.29
726.693	71.12
727.135	71.3
727.577	72.19
728.018	70.69
728.46	70.42
728.902	69.89
729.343	69.7
729.785	69.32
730.226	70.4
730.668	68.72
731.109	70.27
731.551	71.07
731.992	70.85
732.434	70.43
732.875	69.98
733.316	71.29
733.758	69.63
734.199	70.35
734.64	70.6
735.081	70.67
735.523	69.34
735.964	72.1
736.405	68.21
736.846	70.21
737.287	69.92
737.728	69.05
738.169	69.58
738.61	70.32
739.051	69.61
739.492	71.17
739.933	70.47
740.374	69.61
740.815	68.75
741.256	68.24
741.696	71.48
742.137	69.27
742.578	70.35
743.019	69.02
743.459	71.25
743.9	68.62
744.341	71.09
744.781	69.99
745.222	70.14
745.662	71.44
746.103	70.59
746.543	70.06
746.984	68.7
747.424	68.66
747.865	70.28
748.305	68.9
748.745	69.89
749.186	67.67
749.626	69.25
750.066	69.05
750.506	71.36
750.947	68.6
751.387	69.83
751.827	68.89
752.267	70.2
752.707	68.95
753.147	68.5
753.587	69.52
754.027	69.06
754.467	71.66
754.907	68.54
755.347	69.18
755.787	68.85
756.227	69.31
756.667	68.86
757.107	69.98
757.546	68.97
757.986	68.86
758.426	68.82
758.865	67.65
759.305	70.17
759.745	69.16
760.184	70.68
760.624	68.17
761.063	69.48
761.503	69.71
761.943	68.89
762.382	68.68
762.821	69.91
763.261	68.81
763.7	68.43
764.14	71.11
764.579	69.84
765.018	67.54
765.457	69.27
765.897	68.72
766.336	67.87
766.775	69.56
767.214	67.62
767.653	67.09
768.092	68.08
768.531	68.17
768.97	68.56
769.409	69.54
769.848	68.98
770.287	67.81
770.726	68.96
771.165	68.97
771.604	68.2
772.043	67.98
772.482	68.17
772.92	66.8
773.359	69.45
773.798	68.16
774.237	67.98
774.675	68.53
775.114	68.62
775.553	68.38
775.991	68.22
776.43	69.82
776.868	68.92
777.307	68.23
777.745	68.11
778.184	68.54
778.622	68.48
779.06	68.83
779.499	67.82
779.937	67.17
780.375	68.66
780.814	67.75
781.252	67.92
781.69	68.77
782.128	69.08
782.566	67.64
783.004	68.04
783.443	68.83
783.881	67.81
784.319	69.27
784.757	68.62
785.195	66.7
785.633	68.23
786.071	67.41
786.508	68.03
786.946	67.54
787.384	68.23
787.822	68.89
788.26	67.3
788.697	67.22
789.135	69.09
789.573	67.33
790.011	67.67
790.448	67.24
790.886	67.78
791.323	67.33
791.761	69.08
792.198	67.61
792.636	67.08
793.073	68.22
793.511	66.28
793.948	68.28
794.386	68.53
794.823	67.8
795.26	67.3
795.698	66.87
796.135	66.45
796.572	67.62
797.009	67.52
797.446	67.26
797.884	69.09
798.321	66.9
798.758	66.63
799.195	66.61
799.632	66.76
800.069	66.16
800.506	66.92
800.943	65.51
801.38	67.47
801.817	66.47
802.254	66.99
802.69	66.36
803.127	67.77
803.564	65.93
804.001	65.76
804.438	66.36
804.874	67.07
