Data from JCR0034_White2_Reflection_00003.txt Node
Date: Fri Jul 31 15:11:36 ACST 2020
User: Stacey Dix
Spectrometer: MAYP113282
Scans to average: 1
Trigger mode: 0
Integration Time (sec): 1.000000E-1
Electric dark correction enabled: true
Boxcar width: 0
XAxis mode: Wavelengths
Number of Pixels in Spectrum: 2068
>>>>>Begin Spectral Data<<<<<
198.791	0
199.266	-16.67
199.74	300
200.215	100
200.69	77.36
201.164	7.55
201.639	32
202.114	35.37
202.588	43.9
203.063	76.4
203.537	30.26
204.012	60
204.486	39.58
204.961	37.84
205.435	36.61
205.909	33.98
206.384	32.71
206.858	39.47
207.332	13.64
207.807	31.09
208.281	31.36
208.755	36.09
209.229	28.06
209.703	33.03
210.177	24.06
210.651	33.33
211.126	41.48
211.6	43.26
212.074	23.03
212.548	24.59
213.021	25.56
213.495	40.26
213.969	24.03
214.443	39.76
214.917	28.57
215.391	26.16
215.864	36.26
216.338	28.22
216.812	27.45
217.286	33.85
217.759	18.57
218.233	31.3
218.706	29.58
219.18	30.04
219.654	22.8
220.127	25.64
220.6	24.71
221.074	25.67
221.547	21.73
222.021	28.79
222.494	30.95
222.967	32.84
223.441	22.61
223.914	26.34
224.387	26.68
224.86	20.77
225.334	21.14
225.807	21.63
226.28	25.27
226.753	23.22
227.226	21.79
227.699	22.24
228.172	24.81
228.645	21.66
229.118	23.37
229.591	19.77
230.064	20.33
230.537	22.34
231.01	20.69
231.482	18.85
231.955	23.05
232.428	22.5
232.901	18.84
233.373	19.73
233.846	19.52
234.319	19.99
234.791	17.63
235.264	19.09
235.736	21.73
236.209	20.28
236.681	18.5
237.154	19.1
237.626	19.39
238.099	20.55
238.571	20.38
239.044	19.24
239.516	19.6
239.988	18.8
240.46	20.24
240.933	19.08
241.405	17.84
241.877	17.05
242.349	21.34
242.821	18.71
243.293	19.07
243.765	19.78
244.237	19.27
244.71	19.16
245.181	18.45
245.653	18.91
246.125	17.87
246.597	18.35
247.069	18.08
247.541	18.3
248.013	18
248.485	20.36
248.956	17.52
249.428	17.69
249.9	17.54
250.371	19.22
250.843	17.88
251.315	17.94
251.786	17.3
252.258	17.03
252.729	17.08
253.201	16.49
253.672	17.41
254.144	17.83
254.615	17.43
255.086	16.82
255.558	17.91
256.029	16.64
256.5	16.81
256.972	16.67
257.443	16.35
257.914	16.69
258.385	17.07
258.856	16.25
259.327	17.18
259.799	17.26
260.27	16.28
260.741	16.56
261.212	17.03
261.683	16.52
262.154	17.28
262.624	17.11
263.095	16.93
263.566	17.14
264.037	16.52
264.508	17.04
264.979	16.22
265.449	17.04
265.92	16.39
266.391	16.74
266.861	15.54
267.332	16.51
267.803	16.8
268.273	16.5
268.744	15.81
269.214	16.63
269.685	17.08
270.155	17.11
270.626	16.01
271.096	17.02
271.566	15.43
272.037	15.49
272.507	16.82
272.977	16.94
273.448	16.39
273.918	16.59
274.388	16.47
274.858	17.06
275.328	16.99
275.798	16.32
276.268	17.1
276.738	15.06
277.208	16.1
277.678	15.9
278.148	16
278.618	15.69
279.088	15.94
279.558	15.12
280.028	15.87
280.498	16.65
280.968	15.5
281.437	16.38
281.907	16.36
282.377	16.34
282.847	15.38
283.316	15.01
283.786	15.81
284.255	15.89
284.725	15.62
285.194	15.18
285.664	16.08
286.133	16.04
286.603	16.1
287.072	15.62
287.542	15.2
288.011	15.33
288.48	15.25
288.95	15.35
289.419	15.97
289.888	14.79
290.357	15.27
290.827	14.86
291.296	15.69
291.765	15.16
292.234	15.75
292.703	15.78
293.172	15.17
293.641	16.05
294.11	15.95
294.579	14.66
295.048	15.67
295.517	14.94
295.986	15.62
296.455	16.59
296.923	15.36
297.392	15.22
297.861	15.82
298.33	15.32
298.798	15.42
299.267	15.53
299.736	15.59
300.204	15.53
300.673	14.94
301.141	16.09
301.61	15.29
302.079	15.86
302.547	15.88
303.015	15.46
303.484	15.83
303.952	15.63
304.421	15.26
304.889	14.8
305.357	15.14
305.825	15.04
306.294	14.57
306.762	14.88
307.23	15.39
307.698	14.58
308.166	14.56
308.634	15.82
309.103	15.34
309.571	14.28
310.039	14.19
310.507	14.28
310.975	15.47
311.442	15.48
311.91	14.78
312.378	15.01
312.846	15.28
313.314	14.76
313.782	15.09
314.249	15.09
314.717	15.65
315.185	14.32
315.652	13.91
316.12	15.13
316.588	15.24
317.055	15.53
317.523	15.1
317.99	15.34
318.458	15.2
318.925	14.78
319.393	15.36
319.86	15.3
320.328	15.95
320.795	16.02
321.262	15.83
321.73	16.76
322.197	16.92
322.664	16.38
323.131	17.49
323.598	17.35
324.066	18.08
324.533	19.6
325	19.84
325.467	20.39
325.934	20.86
326.401	22.03
326.868	22.73
327.335	24.8
327.802	25.26
328.269	25.53
328.735	27.66
329.202	26.43
329.669	29.46
330.136	28.91
330.603	30.2
331.069	30.56
331.536	31.87
332.003	32.35
332.469	31.95
332.936	33.55
333.402	33.62
333.869	31.13
334.336	33.93
334.802	34.34
335.268	34.75
335.735	33.85
336.201	34.55
336.668	35.01
337.134	34.69
337.6	32.94
338.067	35.31
338.533	35.72
338.999	34.01
339.465	33.98
339.931	35.65
340.398	34.74
340.864	34.62
341.33	33.31
341.796	35.63
342.262	33.46
342.728	34.21
343.194	35.49
343.66	33.56
344.126	33.38
344.592	34.84
345.057	33.88
345.523	33.22
345.989	34.46
346.455	33.91
346.921	34.38
347.386	32.63
347.852	33.97
348.318	35.13
348.783	33.16
349.249	32.59
349.714	33.68
350.18	34.32
350.645	33.17
351.111	34.23
351.576	34.34
352.042	33.23
352.507	33.33
352.973	32.39
353.438	32.02
353.903	31.59
354.369	32.78
354.834	32.74
355.299	32.32
355.764	31.58
356.229	32.4
356.695	32.56
357.16	32.36
357.625	33.78
358.09	32.91
358.555	32.39
359.02	31.98
359.485	33.01
359.95	33.32
360.415	31.18
360.879	32.68
361.344	31.85
361.809	32.13
362.274	33.4
362.739	32.56
363.203	32.64
363.668	32.28
364.133	32.55
364.597	31.5
365.062	32.24
365.527	32.59
365.991	32.68
366.456	30.6
366.92	30.8
367.385	32.92
367.849	32.31
368.314	33.19
368.778	32.12
369.242	31.5
369.707	32.8
370.171	32.3
370.635	32.03
371.1	32.11
371.564	31.46
372.028	31.17
372.492	32.65
372.956	33.25
373.42	33.51
373.884	32.05
374.348	32.68
374.812	32.56
375.276	31.93
375.74	30.1
376.204	31.83
376.668	29.96
377.132	33.42
377.596	32.82
378.06	32.54
378.524	32.08
378.987	32.37
379.451	31.96
379.915	31.05
380.378	33.04
380.842	32.64
381.306	32.36
381.769	31.66
382.233	32.84
382.696	31.96
383.16	31.23
383.623	31.73
384.087	32.23
384.55	32.16
385.014	33.31
385.477	31.7
385.94	32.15
386.404	31.63
386.867	32.31
387.33	32.08
387.793	33.15
388.256	33
388.72	30.81
389.183	31.78
389.646	32.73
390.109	30.45
390.572	31.81
391.035	31.4
391.498	31.85
391.961	31.04
392.424	31.25
392.887	30.73
393.35	32.23
393.812	31.51
394.275	32.6
394.738	30.52
395.201	31.83
395.664	31.34
396.126	31.78
396.589	29.78
397.052	31.74
397.514	30.89
397.977	29.78
398.439	31.76
398.902	31.11
399.364	31.75
399.827	31.05
400.289	31.4
400.752	29.78
401.214	32.33
401.676	31.58
402.139	30.33
402.601	30.84
403.063	30.62
403.525	30.42
403.988	30.24
404.45	29.56
404.912	31.41
405.374	31.46
405.836	29.81
406.298	29.87
406.76	30.78
407.222	30.45
407.684	29.92
408.146	28.91
408.608	27.77
409.07	28.47
409.532	29.25
409.994	29.48
410.456	30.6
410.917	30.27
411.379	29.54
411.841	29.94
412.303	29.61
412.764	30.09
413.226	30.81
413.687	28.35
414.149	31.28
414.611	29.17
415.072	29.48
415.534	30.78
415.995	28.89
416.457	30.2
416.918	29.71
417.379	30.75
417.841	30.82
418.302	29.54
418.763	31.25
419.225	30.37
419.686	30.52
420.147	29.65
420.608	29.64
421.069	30.71
421.53	30.95
421.991	29.86
422.453	31
422.914	31.51
423.375	29.73
423.836	30.46
424.297	31.69
424.757	30.89
425.218	31.55
425.679	31.48
426.14	32.17
426.601	31.47
427.062	33.94
427.522	32.8
427.983	31.15
428.444	33.18
428.904	32.53
429.365	32.34
429.826	34.34
430.286	32.55
430.747	31.51
431.207	31.95
431.668	34.46
432.128	33.84
432.589	31.7
433.049	32.68
433.509	32.08
433.97	35.6
434.43	30.93
434.89	31.37
435.351	31.72
435.811	32.86
436.271	32.44
436.731	33.39
437.191	32.54
437.651	34.52
438.112	33.26
438.572	35.28
439.032	33.8
439.492	34.56
439.952	33.3
440.412	33.54
440.871	34.62
441.331	34.2
441.791	34.1
442.251	34.05
442.711	35.03
443.171	35.1
443.63	32.49
444.09	32.87
444.55	32.88
445.009	34.08
445.469	32.82
445.929	34.91
446.388	34.62
446.848	32.14
447.307	32.74
447.767	34.79
448.226	34.64
448.686	35.35
449.145	33.25
449.604	34.82
450.064	32.9
450.523	34.14
450.982	33.87
451.442	35.22
451.901	34.62
452.36	34.32
452.819	34.15
453.278	33.79
453.737	33.26
454.197	35.61
454.656	36.47
455.115	35.38
455.574	34.08
456.033	33.62
456.492	33.17
456.95	34.82
457.409	36.29
457.868	36.85
458.327	34.82
458.786	35.99
459.245	33.64
459.703	33.58
460.162	34.56
460.621	34.68
461.079	33.85
461.538	33.45
461.997	34.59
462.455	36.47
462.914	33.8
463.372	32.52
463.831	37.13
464.289	33.7
464.748	35.43
465.206	34.34
465.664	34.34
466.123	33.97
466.581	35.55
467.039	35.7
467.497	36.41
467.956	34.11
468.414	32.39
468.872	33.01
469.33	34.36
469.788	34.02
470.246	34.45
470.704	33.08
471.162	35.42
471.62	36.22
472.078	33.93
472.536	36.22
472.994	35.53
473.452	36.07
473.91	33.65
474.368	32.82
474.826	35.14
475.283	33.2
475.741	34.09
476.199	32.31
476.656	34.79
477.114	33.82
477.572	33.76
478.029	32.5
478.487	37.02
478.944	34.43
479.402	36.53
479.859	34.01
480.317	34.91
480.774	33.38
481.232	35.57
481.689	34.26
482.146	34.24
482.604	35.52
483.061	33.07
483.518	35.24
483.975	36.77
484.433	33.03
484.89	35.77
485.347	35.2
485.804	34.78
486.261	36.38
486.718	34.01
487.175	34.11
487.632	35.86
488.089	35.29
488.546	32.33
489.003	34.19
489.46	33.96
489.917	33.84
490.373	36.62
490.83	32.03
491.287	34.87
491.744	34.34
492.2	35.58
492.657	34.39
493.114	33.4
493.57	37.06
494.027	31.76
494.484	34.87
494.94	33.77
495.397	35.14
495.853	35.98
496.31	32.86
496.766	32.85
497.222	32.87
497.679	34.85
498.135	33.9
498.591	33
499.048	34.98
499.504	33.7
499.96	36.38
500.416	35.75
500.872	34.65
501.329	36.52
501.785	32.85
502.241	35.04
502.697	35.97
503.153	32.63
503.609	35.39
504.065	33.66
504.521	33.31
504.977	31.92
505.432	34.3
505.888	33.78
506.344	34.18
506.8	33.17
507.256	33.24
507.711	33.48
508.167	33.05
508.623	33.24
509.078	33.89
509.534	34.12
509.99	33.08
510.445	33.91
510.901	34.73
511.356	33.96
511.812	34.01
512.267	33.99
512.722	35.02
513.178	34.13
513.633	33.57
514.089	34
514.544	35.64
514.999	36.45
515.454	33.29
515.91	33.94
516.365	35.37
516.82	33.29
517.275	32.31
517.73	32.44
518.185	32.44
518.64	34.76
519.095	31.91
519.55	33.41
520.005	33.6
520.46	32.41
520.915	37.01
521.37	35.64
521.825	34.21
522.28	31.77
522.734	34.16
523.189	32.41
523.644	33.53
524.099	35.45
524.553	35.07
525.008	31.97
525.462	33.85
525.917	32.52
526.372	34.41
526.826	33.67
527.281	35.27
527.735	33.66
528.19	33.06
528.644	32.8
529.098	32.6
529.553	32.26
530.007	33.3
530.461	33.08
530.916	32.83
531.37	32.37
531.824	32.25
532.278	31.49
532.732	32.03
533.186	32.3
533.641	33.75
534.095	33.68
534.549	33.37
535.003	33.75
535.457	32.88
535.911	34.62
536.365	33.48
536.818	33.13
537.272	35.11
537.726	33.12
538.18	33.75
538.634	34.57
539.087	32.72
539.541	32.33
539.995	34.76
540.449	34.23
540.902	34.11
541.356	34.09
541.809	32.62
542.263	31.89
542.716	35.12
543.17	32.68
543.623	31.86
544.077	33.33
544.53	33.05
544.984	32.95
545.437	32.21
545.89	33.02
546.344	34.22
546.797	34.14
547.25	32
547.703	31.41
548.157	32.32
548.61	31.89
549.063	34.14
549.516	32.46
549.969	33.94
550.422	33.38
550.875	32.35
551.328	32.62
551.781	34.76
552.234	33.42
552.687	33.1
553.14	34.54
553.592	31.8
554.045	31.29
554.498	33.53
554.951	31.78
555.404	32.52
555.856	31.42
556.309	33.39
556.762	32.81
557.214	33.29
557.667	31.75
558.119	33.23
558.572	34.58
559.024	32.33
559.477	33.84
559.929	33.53
560.382	32.35
560.834	32.62
561.286	32.31
561.739	33.48
562.191	32.14
562.643	32.25
563.095	33.43
563.548	33.04
564	33.64
564.452	31.74
564.904	32.18
565.356	33.08
565.808	33.03
566.26	33.89
566.712	34.37
567.164	32.62
567.616	34.89
568.068	32.05
568.52	32.96
568.972	31.39
569.424	32.91
569.876	32.46
570.327	33.13
570.779	32.49
571.231	33.45
571.682	33.18
572.134	34.01
572.586	32.56
573.037	33.15
573.489	33.01
573.941	33.37
574.392	34.06
574.844	33.34
575.295	32.8
575.746	32
576.198	32.51
576.649	32.27
577.101	34.09
577.552	32.84
578.003	34.37
578.454	32.67
578.906	33.13
579.357	32.98
579.808	33.09
580.259	33.24
580.71	33.18
581.161	33.58
581.612	32.84
582.064	33.2
582.515	32.95
582.965	32.81
583.416	35.1
583.867	32.48
584.318	32.77
584.769	32.87
585.22	33.69
585.671	33.13
586.122	33.78
586.572	33.61
587.023	31.57
587.474	32.75
587.924	32.85
588.375	32.36
588.826	34.14
589.276	32.74
589.727	32.26
590.177	32.95
590.628	32.63
591.078	32.66
591.529	32.15
591.979	32.79
592.429	32.3
592.88	32.62
593.33	32.5
593.78	33.48
594.231	34.26
594.681	32.72
595.131	32.43
595.581	32.03
596.031	32.95
596.481	33.74
596.932	33.34
597.382	33.24
597.832	32.78
598.282	32.66
598.732	33.69
599.182	33.47
599.632	33.67
600.081	33.18
600.531	34.5
600.981	32.04
601.431	32.64
601.881	33.04
602.33	33.05
602.78	32.47
603.23	32.4
603.679	32.35
604.129	31.92
604.579	33.31
605.028	33.1
605.478	31.81
605.927	32.93
606.377	32.61
606.826	32.61
607.276	32.35
607.725	33.64
608.175	33.13
608.624	32.87
609.073	32.8
609.522	33.52
609.972	33.75
610.421	31.81
610.87	31.69
611.319	33.67
611.768	32.62
612.218	33.26
612.667	32.7
613.116	32.6
613.565	31.83
614.014	32.81
614.463	33.08
614.912	33.42
615.361	32.84
615.81	32.83
616.258	32.65
616.707	32.38
617.156	32.62
617.605	33.56
618.054	32.39
618.502	31.92
618.951	31.86
619.4	32.48
619.848	31.44
620.297	31.63
620.745	32.19
621.194	32.67
621.642	31.89
622.091	32.18
622.539	32.11
622.988	31.81
623.436	32.66
623.885	32.78
624.333	33.12
624.781	31.96
625.23	33.32
625.678	33.12
626.126	32.73
626.574	31.84
627.022	32.47
627.471	32.22
627.919	32.86
628.367	32.57
628.815	34.24
629.263	33.18
629.711	32.73
630.159	33.14
630.607	32.84
631.055	32.3
631.503	31.74
631.95	32.25
632.398	33.01
632.846	32.32
633.294	31.84
633.742	32.11
634.189	31.61
634.637	32.27
635.085	33.09
635.532	31.92
635.98	32.27
636.427	31.66
636.875	32.65
637.323	32.44
637.77	31.66
638.217	33.23
638.665	31.7
639.112	33.27
639.56	32.43
640.007	32.2
640.454	32.15
640.902	32.61
641.349	33.02
641.796	32.63
642.243	32.74
642.69	31.42
643.138	32.53
643.585	33.4
644.032	32.69
644.479	31.94
644.926	32.4
645.373	32.75
645.82	31.85
646.267	32.94
646.714	32.81
647.161	32.42
647.607	33.66
648.054	32.56
648.501	32.13
648.948	32.15
649.395	30.99
649.841	33.21
650.288	32.19
650.735	33.14
651.181	32.6
651.628	31.41
652.075	32.12
652.521	32.13
652.968	32.63
653.414	31.79
653.861	32.44
654.307	31.99
654.753	31.63
655.2	32.96
655.646	31.52
656.092	32.88
656.539	32.01
656.985	33.47
657.431	31.84
657.877	32.82
658.324	32.11
658.77	32.15
659.216	32.77
659.662	32.37
660.108	32.02
660.554	32.08
661	32.13
661.446	32.33
661.892	32.01
662.338	32.09
662.784	33.15
663.23	32.81
663.675	32.7
664.121	32.3
664.567	32.15
665.013	32.93
665.458	31.75
665.904	32.15
666.35	32.19
666.795	32.7
667.241	32.74
667.687	32.29
668.132	32.32
668.578	32.11
669.023	32.26
669.469	32.32
669.914	31.65
670.359	31.89
670.805	33.78
671.25	32.45
671.695	32.6
672.141	31.73
672.586	32.61
673.031	32.42
673.476	33.22
673.922	32.38
674.367	32.53
674.812	32.65
675.257	32.71
675.702	32.46
676.147	31.62
676.592	32.24
677.037	32.37
677.482	31.83
677.927	32.96
678.372	32.34
678.817	33.05
679.261	32.94
679.706	32.21
680.151	32.17
680.596	33.41
681.04	32.26
681.485	32.41
681.93	33.13
682.374	32.89
682.819	32.35
683.264	31.82
683.708	32.86
684.153	33.61
684.597	32.44
685.042	32.43
685.486	31.92
685.93	31.83
686.375	31.64
686.819	31.85
687.263	32.63
687.708	32.46
688.152	32.99
688.596	32.54
689.04	32.24
689.485	32.45
689.929	32.3
690.373	31.9
690.817	32.58
691.261	32.6
691.705	32.33
692.149	32.43
692.593	32.22
693.037	32.62
693.481	32.69
693.925	32.56
694.369	33.29
694.812	32.1
695.256	32.51
695.7	32.46
696.144	33.02
696.587	32.56
697.031	32.71
697.475	32.67
697.918	31.82
698.362	32.56
698.806	32.46
699.249	32.65
699.693	32.38
700.136	33.04
700.58	32.98
701.023	32.91
701.466	32.74
701.91	33
702.353	32.39
702.796	32.86
703.24	32.35
703.683	32.51
704.126	32.18
704.569	32.14
705.013	32.5
705.456	32.38
705.899	32.53
706.342	32.3
706.785	32.48
707.228	32.71
707.671	32.73
708.114	32.81
708.557	32.37
709	32.21
709.443	32.63
709.886	31.74
710.328	32.37
710.771	33.23
711.214	31.66
711.657	32.83
712.099	32.48
712.542	31.89
712.985	32.18
713.427	31.92
713.87	33.12
714.313	32.46
714.755	32.72
715.198	32.73
715.64	32.26
716.083	32.74
716.525	32.08
716.967	32.2
717.41	32.22
717.852	32.26
718.295	32.35
718.737	33.4
719.179	32.37
719.621	32.02
720.063	31.61
720.506	32.16
720.948	32.64
721.39	32.1
721.832	31.76
722.274	32.86
722.716	32.03
723.158	32.73
723.6	32.16
724.042	32.13
724.484	31.04
724.926	32.17
725.368	32.09
725.81	31.42
726.251	32.02
726.693	32.21
727.135	32.76
727.577	32.47
728.018	32.74
728.46	32.33
728.902	32.19
729.343	32.85
729.785	31.92
730.226	32.11
730.668	31.65
731.109	32.97
731.551	32.61
731.992	32.04
732.434	32.58
732.875	31.78
733.316	33.18
733.758	32.47
734.199	32.66
734.64	32.34
735.081	32.54
735.523	32.76
735.964	31.26
736.405	31.65
736.846	33.29
737.287	31.96
737.728	31.81
738.169	32.82
738.61	32.72
739.051	33.6
739.492	32.31
739.933	32.15
740.374	33.64
740.815	32.8
741.256	33.36
741.696	32.72
742.137	32.69
742.578	32.93
743.019	32.11
743.459	32.23
743.9	31.84
744.341	32.22
744.781	33.01
745.222	31.99
745.662	32.12
746.103	32.73
746.543	32.13
746.984	32.38
747.424	31.77
747.865	32.39
748.305	31.94
748.745	32.97
749.186	32.51
749.626	32.45
750.066	31.89
750.506	32.44
750.947	32.41
751.387	32.1
751.827	32.46
752.267	33.09
752.707	32.68
753.147	32.59
753.587	33.29
754.027	31.16
754.467	32.52
754.907	32.81
755.347	32.73
755.787	32.55
756.227	32.56
756.667	33.04
757.107	31.82
757.546	32.77
757.986	31.69
758.426	32.27
758.865	32.16
759.305	32.67
759.745	32.71
760.184	32.85
760.624	32.53
761.063	32.75
761.503	32.19
761.943	32.56
762.382	32.12
762.821	32.01
763.261	32.76
763.7	32.06
764.14	31.89
764.579	31.9
765.018	33
765.457	33.41
765.897	32.34
766.336	32.42
766.775	32.58
767.214	32.16
767.653	32.94
768.092	31.83
768.531	33.21
768.97	32.89
769.409	33.15
769.848	32.65
770.287	31.96
770.726	33.2
771.165	31.97
771.604	31.95
772.043	31.94
772.482	32.86
772.92	31.86
773.359	32.38
773.798	32.34
774.237	33.07
774.675	32.55
775.114	32.13
775.553	33.02
775.991	32.27
776.43	32.1
776.868	32.24
777.307	32.32
777.745	32.17
778.184	33.14
778.622	32.29
779.06	32.38
779.499	32.61
779.937	32.87
780.375	32.44
780.814	32.81
781.252	32.49
781.69	32.22
782.128	33.04
782.566	32.12
783.004	32.7
783.443	32.73
783.881	32.52
784.319	32.22
784.757	32.03
785.195	32.55
785.633	33.04
786.071	32.4
786.508	31.94
786.946	32.75
787.384	32.71
787.822	32.76
788.26	32.61
788.697	32.71
789.135	32.29
789.573	32.51
790.011	32.25
790.448	32.82
790.886	33.01
791.323	32.91
791.761	32.25
792.198	32.82
792.636	32.57
793.073	33.27
793.511	32.73
793.948	33.53
794.386	32.51
794.823	33
795.26	32.89
795.698	32.92
796.135	32.57
796.572	33.1
797.009	32.13
797.446	32.41
797.884	32.92
798.321	32.78
798.758	33.2
799.195	32.93
799.632	33.16
800.069	32.97
800.506	33.11
800.943	33.39
801.38	32.8
801.817	33.19
802.254	32.66
802.69	32.9
803.127	33.23
803.564	32.91
804.001	33.04
804.438	32.94
804.874	32.71
805.311	33.24
