Data from JCR0002_YellowVentral_Reflection_00002.txt Node
Date: Wed Jul 22 12:03:47 ACST 2020
User: Stacey Dix
Spectrometer: MAYP113282
Scans to average: 1
Trigger mode: 0
Integration Time (sec): 1.000000E-1
Electric dark correction enabled: true
Boxcar width: 0
XAxis mode: Wavelengths
Number of Pixels in Spectrum: 2068
>>>>>Begin Spectral Data<<<<<
198.791	-850
199.266	125
199.74	-850
200.215	12.5
200.69	225.47
201.164	115.62
201.639	141.58
202.114	103.8
202.588	107.3
203.063	107.25
203.537	92.86
204.012	76.79
204.486	102.3
204.961	96.71
205.435	97.37
205.909	84.23
206.384	86
206.858	129.33
207.332	92.64
207.807	116.18
208.281	72.5
208.755	140.76
209.229	76.82
209.703	92.12
210.177	94.52
210.651	84.94
211.126	123.11
211.6	84.7
212.074	84.54
212.548	88.55
213.021	80.42
213.495	98.09
213.969	100.31
214.443	80.22
214.917	111.68
215.391	70.36
215.864	77.46
216.338	101.7
216.812	75.89
217.286	60.86
217.759	82.14
218.233	73.49
218.706	107.91
219.18	75.1
219.654	71.12
220.127	69.39
220.6	47.61
221.074	53.42
221.547	62.93
222.021	73.95
222.494	75.38
222.967	55.19
223.441	65.86
223.914	56.72
224.387	62.54
224.86	40.27
225.334	53.34
225.807	53.79
226.28	48.46
226.753	54.31
227.226	33.7
227.699	53.81
228.172	31.88
228.645	39.98
229.118	41.29
229.591	30.63
230.064	42.71
230.537	32.04
231.01	27.31
231.482	41
231.955	28.55
232.428	35.67
232.901	32.9
233.373	27.6
233.846	33.75
234.319	28.71
234.791	29.17
235.264	32.04
235.736	24.66
236.209	32.26
236.681	26.12
237.154	25.19
237.626	27.06
238.099	25.45
238.571	28.14
239.044	32.19
239.516	24.68
239.988	28.41
240.46	26.52
240.933	24.52
241.405	25.76
241.877	25.16
242.349	23.86
242.821	26.65
243.293	27.41
243.765	21.97
244.237	26.39
244.71	22.38
245.181	22.24
245.653	26.17
246.125	25.11
246.597	25.07
247.069	23.57
247.541	21.72
248.013	23.22
248.485	28.94
248.956	21.04
249.428	22.63
249.9	20.79
250.371	23.96
250.843	19.29
251.315	19.42
251.786	18.56
252.258	20.77
252.729	19.64
253.201	17.2
253.672	17.99
254.144	17.4
254.615	18.24
255.086	19.87
255.558	19.42
256.029	19.91
256.5	16.77
256.972	18.67
257.443	20.35
257.914	18.34
258.385	19.27
258.856	16.88
259.327	18.84
259.799	17.42
260.27	18.68
260.741	17.89
261.212	16.8
261.683	16.95
262.154	17.89
262.624	15.89
263.095	16.51
263.566	18.55
264.037	17.71
264.508	20.2
264.979	18.86
265.449	14.95
265.92	17.81
266.391	20.18
266.861	19.26
267.332	16.8
267.803	17.98
268.273	16.6
268.744	16.19
269.214	16.98
269.685	16.96
270.155	16.43
270.626	20.46
271.096	19.04
271.566	19.63
272.037	17.76
272.507	18.7
272.977	21.07
273.448	16.96
273.918	20.9
274.388	23.26
274.858	18.67
275.328	17.26
275.798	18.81
276.268	17.44
276.738	17.84
277.208	17.52
277.678	21.66
278.148	21.02
278.618	21.02
279.088	16.54
279.558	21.68
280.028	17.89
280.498	19.21
280.968	18.31
281.437	21.28
281.907	15.36
282.377	17.49
282.847	18.39
283.316	17.19
283.786	15.76
284.255	18.43
284.725	16.69
285.194	18.96
285.664	17.67
286.133	16.18
286.603	19.54
287.072	16.25
287.542	15.71
288.011	16.46
288.48	15.46
288.95	15.33
289.419	19.07
289.888	16.92
290.357	18.28
290.827	18.19
291.296	17.54
291.765	16.32
292.234	17.7
292.703	16.38
293.172	17.21
293.641	16.82
294.11	16.63
294.579	16.85
295.048	18.24
295.517	17.6
295.986	16.34
296.455	18.55
296.923	17.55
297.392	19.06
297.861	18.79
298.33	16.64
298.798	17.27
299.267	21.04
299.736	19.97
300.204	17.07
300.673	18.46
301.141	19.33
301.61	14.85
302.079	18.25
302.547	18.02
303.015	19.39
303.484	17.66
303.952	19.3
304.421	18.37
304.889	18.08
305.357	18.46
305.825	18.02
306.294	17.69
306.762	18.96
307.23	19.59
307.698	20.95
308.166	19.45
308.634	16.85
309.103	19.28
309.571	18.08
310.039	17.2
310.507	16.5
310.975	15.79
311.442	20.57
311.91	21.81
312.378	18.8
312.846	18.96
313.314	18.69
313.782	17.77
314.249	19.08
314.717	19.54
315.185	16.8
315.652	19.97
316.12	20.7
316.588	19.69
317.055	19.92
317.523	17.28
317.99	20.87
318.458	18.32
318.925	17.96
319.393	18.52
319.86	17.59
320.328	18.96
320.795	18.89
321.262	17.46
321.73	17.51
322.197	23.67
322.664	16.95
323.131	19.78
323.598	19.66
324.066	16.6
324.533	18.95
325	17.73
325.467	19.8
325.934	20.06
326.401	20.08
326.868	17.18
327.335	18.91
327.802	20.92
328.269	18.59
328.735	20.5
329.202	20.6
329.669	19.86
330.136	21.41
330.603	20.96
331.069	19.57
331.536	18.7
332.003	19.22
332.469	20.61
332.936	17.99
333.402	21
333.869	19.5
334.336	18.42
334.802	17.98
335.268	18.64
335.735	21.03
336.201	17.64
336.668	21.91
337.134	20.96
337.6	18.13
338.067	20.48
338.533	20.73
338.999	20.68
339.465	18.79
339.931	17.36
340.398	19.04
340.864	20.28
341.33	16.87
341.796	17.96
342.262	19.75
342.728	17.46
343.194	17.6
343.66	18.09
344.126	18.77
344.592	19.46
345.057	19.96
345.523	20.21
345.989	19.18
346.455	17.6
346.921	19.5
347.386	17.19
347.852	18.99
348.318	17.38
348.783	20.19
349.249	18.24
349.714	19.73
350.18	16.42
350.645	22.5
351.111	17.98
351.576	19.62
352.042	18.03
352.507	19.29
352.973	19.4
353.438	18.11
353.903	19.48
354.369	19.94
354.834	16.44
355.299	18.34
355.764	19.59
356.229	17.57
356.695	18.58
357.16	18.61
357.625	18.85
358.09	19.7
358.555	17.03
359.02	19.08
359.485	19.51
359.95	17.06
360.415	19.74
360.879	18.23
361.344	17.86
361.809	17.28
362.274	17.42
362.739	18.76
363.203	18.52
363.668	18.62
364.133	15.19
364.597	17.11
365.062	18.65
365.527	16.49
365.991	15.64
366.456	17.48
366.92	18.57
367.385	16.88
367.849	17.94
368.314	17.18
368.778	16.82
369.242	17.57
369.707	16.89
370.171	16.54
370.635	18.79
371.1	15.7
371.564	16.9
372.028	17.62
372.492	17.94
372.956	13.88
373.42	19.06
373.884	14.56
374.348	16.93
374.812	16.91
375.276	15.77
375.74	14.69
376.204	18.57
376.668	15
377.132	16.61
377.596	13.89
378.06	16.85
378.524	15.76
378.987	16.95
379.451	15.29
379.915	15.56
380.378	15.35
380.842	15.54
381.306	18.63
381.769	16.73
382.233	16.15
382.696	15.85
383.16	15.74
383.623	15.86
384.087	15.12
384.55	16.31
385.014	14.89
385.477	16.4
385.94	16.64
386.404	15.59
386.867	16.88
387.33	15.41
387.793	17.49
388.256	15.87
388.72	13.86
389.183	16.63
389.646	15.47
390.109	14.63
390.572	16.05
391.035	15.68
391.498	15.98
391.961	14.56
392.424	14.48
392.887	15.37
393.35	14.19
393.812	15.59
394.275	13.43
394.738	13.77
395.201	15.56
395.664	16.55
396.126	15.74
396.589	16.43
397.052	14.35
397.514	16.79
397.977	13.03
398.439	16.86
398.902	14.12
399.364	14
399.827	15.29
400.289	16.76
400.752	15.98
401.214	14.68
401.676	14.95
402.139	13.9
402.601	15.91
403.063	13.94
403.525	15.57
403.988	13.67
404.45	15.78
404.912	15.18
405.374	12.86
405.836	16.11
406.298	16.63
406.76	14.56
407.222	15.3
407.684	15.17
408.146	13.97
408.608	14.76
409.07	14.54
409.532	15.55
409.994	13.62
410.456	15.54
410.917	15.61
411.379	12.19
411.841	13.43
412.303	14.75
412.764	15.88
413.226	15.59
413.687	15.48
414.149	14.98
414.611	13.26
415.072	14.59
415.534	13.84
415.995	16.29
416.457	14.62
416.918	14.44
417.379	13.01
417.841	12.87
418.302	15.08
418.763	14.88
419.225	13.6
419.686	13.61
420.147	13.89
420.608	12.57
421.069	13.88
421.53	15.67
421.991	14.66
422.453	14.73
422.914	14.34
423.375	12.34
423.836	14.73
424.297	14.76
424.757	13.37
425.218	13.73
425.679	15.04
426.14	14.68
426.601	16.7
427.062	15.9
427.522	15.05
427.983	15.63
428.444	17.16
428.904	15.09
429.365	14.66
429.826	18
430.286	16.55
430.747	18.26
431.207	13.96
431.668	16.57
432.128	18.8
432.589	17.36
433.049	12.71
433.509	17.83
433.97	17.94
434.43	15.93
434.89	15.66
435.351	14.8
435.811	16.77
436.271	15.72
436.731	15.59
437.191	14.79
437.651	11.87
438.112	13.76
438.572	16.92
439.032	13.21
439.492	14.62
439.952	12.96
440.412	13.81
440.871	15.78
441.331	12.8
441.791	15.63
442.251	14.43
442.711	15.9
443.171	14.58
443.63	12.7
444.09	15.06
444.55	13.76
445.009	15.16
445.469	13.5
445.929	14.44
446.388	14.33
446.848	15.09
447.307	15.96
447.767	12.88
448.226	14.41
448.686	16.14
449.145	13.57
449.604	14.61
450.064	14.47
450.523	11.72
450.982	14.53
451.442	12.94
451.901	13.53
452.36	16.18
452.819	14.36
453.278	14.39
453.737	14.27
454.197	13
454.656	12.6
455.115	18.52
455.574	13.39
456.033	15.48
456.492	16.64
456.95	12.64
457.409	16.4
457.868	17.46
458.327	15.09
458.786	16.89
459.245	14.93
459.703	14.37
460.162	16.07
460.621	15.85
461.079	16.77
461.538	12.82
461.997	15.36
462.455	13.11
462.914	15.2
463.372	15.85
463.831	14.36
464.289	14.79
464.748	16.61
465.206	16.12
465.664	13.87
466.123	16.34
466.581	16.38
467.039	14.04
467.497	18.63
467.956	16.77
468.414	14.31
468.872	16.14
469.33	16
469.788	13.7
470.246	18.05
470.704	17.02
471.162	13.92
471.62	13.73
472.078	17.31
472.536	16.69
472.994	15.69
473.452	16.19
473.91	19.15
474.368	15.75
474.826	16.3
475.283	18.2
475.741	14.49
476.199	13.01
476.656	17.73
477.114	17.79
477.572	14.14
478.029	16.01
478.487	18.53
478.944	16.22
479.402	14.98
479.859	16.87
480.317	17.71
480.774	16.15
481.232	19.14
481.689	21.01
482.146	18.19
482.604	21.33
483.061	19.18
483.518	17.63
483.975	17.12
484.433	16.89
484.89	18.59
485.347	20.95
485.804	18.83
486.261	20.58
486.718	19
487.175	19.96
487.632	19.34
488.089	21.9
488.546	19.2
489.003	20.71
489.46	19.81
489.917	23.54
490.373	20.8
490.83	20.14
491.287	19.27
491.744	20.94
492.2	21.17
492.657	18.92
493.114	18.26
493.57	18.74
494.027	23.38
494.484	23.91
494.94	22.73
495.397	22.48
495.853	20.59
496.31	19.66
496.766	18.55
497.222	22.46
497.679	24.55
498.135	22.47
498.591	23.51
499.048	23.28
499.504	23.72
499.96	22.18
500.416	17.96
500.872	22.65
501.329	18.84
501.785	24.07
502.241	19.99
502.697	19.41
503.153	20.15
503.609	26.51
504.065	23.72
504.521	24.33
504.977	24.46
505.432	24.35
505.888	21.98
506.344	22.02
506.8	23.76
507.256	23.86
507.711	23.83
508.167	24.89
508.623	22.18
509.078	22.02
509.534	22.8
509.99	22.71
510.445	22.21
510.901	24.52
511.356	22.83
511.812	23.33
512.267	22.81
512.722	22.23
513.178	24.3
513.633	21.29
514.089	21.88
514.544	24.55
514.999	22.58
515.454	24.13
515.91	23.1
516.365	22.66
516.82	22.16
517.275	25.27
517.73	24.44
518.185	24.77
518.64	24.21
519.095	23.11
519.55	23.59
520.005	24.58
520.46	26.97
520.915	25.01
521.37	26.87
521.825	24.06
522.28	22.56
522.734	24.6
523.189	26.4
523.644	28.25
524.099	26.8
524.553	25.63
525.008	26.76
525.462	25.6
525.917	24.19
526.372	24.62
526.826	26.16
527.281	25.29
527.735	26.61
528.19	26.11
528.644	26.72
529.098	25.15
529.553	27.31
530.007	26.24
530.461	26.91
530.916	26.07
531.37	25.72
531.824	27.55
532.278	28.84
532.732	29.5
533.186	29.83
533.641	29.19
534.095	29.04
534.549	29.93
535.003	26.88
535.457	29.27
535.911	28.83
536.365	27.51
536.818	30.01
537.272	29.42
537.726	28.76
538.18	32.28
538.634	32.12
539.087	30.4
539.541	28.37
539.995	29.87
540.449	32.74
540.902	28.93
541.356	31.75
541.809	30.93
542.263	31.07
542.716	34.65
543.17	32.3
543.623	34.84
544.077	30.29
544.53	30.53
544.984	32.08
545.437	30.53
545.89	29
546.344	33.42
546.797	32.99
547.25	31.79
547.703	37.13
548.157	35.95
548.61	35.82
549.063	32.53
549.516	33.42
549.969	35.56
550.422	37.04
550.875	37.07
551.328	34.3
551.781	37.53
552.234	33.07
552.687	36.88
553.14	35.52
553.592	34.56
554.045	34.63
554.498	36.8
554.951	36.71
555.404	37.25
555.856	35.33
556.309	37.58
556.762	39.38
557.214	36.84
557.667	37.92
558.119	36.85
558.572	36.92
559.024	37.19
559.477	34.85
559.929	35
560.382	36.65
560.834	37.49
561.286	37.15
561.739	38.68
562.191	38.3
562.643	38.93
563.095	37.51
563.548	36.63
564	40.59
564.452	38.79
564.904	38.9
565.356	38.21
565.808	36.24
566.26	38.54
566.712	39.09
567.164	38.26
567.616	35.15
568.068	37.41
568.52	37.91
568.972	37.69
569.424	38.77
569.876	38.9
570.327	40.2
570.779	40.3
571.231	37.35
571.682	40.34
572.134	39.42
572.586	41.3
573.037	39.62
573.489	38.33
573.941	38.16
574.392	38.33
574.844	39.69
575.295	39.09
575.746	39.22
576.198	37.24
576.649	40
577.101	41.9
577.552	38
578.003	37.53
578.454	41.58
578.906	39.18
579.357	39.77
579.808	39.67
580.259	41.2
580.71	39.48
581.161	40.85
581.612	40.32
582.064	41.33
582.515	39.4
582.965	40.38
583.416	38.81
583.867	39.49
584.318	39.69
584.769	39.28
585.22	42.11
585.671	43.61
586.122	44.01
586.572	42.6
587.023	41.26
587.474	40.08
587.924	41.02
588.375	41.34
588.826	41.39
589.276	39.25
589.727	40.28
590.177	42.08
590.628	41.92
591.078	39.41
591.529	43.37
591.979	40.76
592.429	43.44
592.88	41.12
593.33	44.06
593.78	43.49
594.231	40.16
594.681	45.27
595.131	42.67
595.581	42.67
596.031	40.32
596.481	42.79
596.932	41.66
597.382	40.09
597.832	40.89
598.282	43.9
598.732	43.71
599.182	41.79
599.632	41.74
600.081	41.32
600.531	42.69
600.981	42.7
601.431	44.3
601.881	40.83
602.33	42.28
602.78	42.71
603.23	43.87
603.679	44.07
604.129	44.65
604.579	44.15
605.028	42.77
605.478	42.37
605.927	42.31
606.377	42.13
606.826	42.61
607.276	42.82
607.725	43.69
608.175	41.47
608.624	42.21
609.073	41.58
609.522	42.96
609.972	43.56
610.421	41.99
610.87	43.54
611.319	42.11
611.768	45
612.218	42.69
612.667	44.16
613.116	43.86
613.565	42.7
614.014	43.31
614.463	44.1
614.912	44.57
615.361	41.28
615.81	45.04
616.258	42.62
616.707	42.92
617.156	43.92
617.605	45.19
618.054	42.94
618.502	43.66
618.951	42.84
619.4	44.77
619.848	42.84
620.297	44.22
620.745	42.71
621.194	41.56
621.642	44.14
622.091	43.85
622.539	44.24
622.988	43.38
623.436	43.64
623.885	43.72
624.333	45.97
624.781	43.44
625.23	44.41
625.678	46.39
626.126	44.4
626.574	42.65
627.022	43.68
627.471	43.69
627.919	43.24
628.367	43.3
628.815	44.2
629.263	43.24
629.711	42.25
630.159	43.19
630.607	42.96
631.055	44
631.503	41.74
631.95	44.86
632.398	43.5
632.846	43.21
633.294	43.48
633.742	44.47
634.189	43.48
634.637	44.39
635.085	42.73
635.532	44.2
635.98	43.29
636.427	45
636.875	45.44
637.323	44.72
637.77	45.26
638.217	46.04
638.665	41.93
639.112	43.83
639.56	43.89
640.007	44.44
640.454	44.25
640.902	43.22
641.349	43.41
641.796	44.3
642.243	42.71
642.69	44.38
643.138	44.6
643.585	42.91
644.032	44.35
644.479	44.53
644.926	43.68
645.373	43.73
645.82	43.48
646.267	45.09
646.714	42.8
647.161	44.33
647.607	44.02
648.054	41.29
648.501	43.41
648.948	45.66
649.395	44.07
649.841	43.77
650.288	45.26
650.735	43.41
651.181	42.86
651.628	44.47
652.075	45.47
652.521	44.28
652.968	44.16
653.414	43.97
653.861	43.42
654.307	43.44
654.753	45.47
655.2	43.85
655.646	45.13
656.092	43.69
656.539	42.97
656.985	43.79
657.431	44.5
657.877	42.65
658.324	44.81
658.77	44.75
659.216	44.48
659.662	47.81
660.108	46.19
660.554	44.25
661	42.53
661.446	44.86
661.892	44.59
662.338	42.5
662.784	43.71
663.23	45.1
663.675	44.9
664.121	43.51
664.567	44.16
665.013	43.22
665.458	43.17
665.904	45.02
666.35	43.77
666.795	44.51
667.241	44.86
667.687	43.5
668.132	44.31
668.578	43.38
669.023	43.69
669.469	43.38
669.914	44.32
670.359	44.28
670.805	43.91
671.25	42.73
671.695	44.32
672.141	44.87
672.586	42.36
673.031	43.99
673.476	43.43
673.922	44.18
674.367	44.05
674.812	43.41
675.257	43.99
675.702	43.55
676.147	43.17
676.592	44.5
677.037	43.63
677.482	44.43
677.927	43.83
678.372	44.84
678.817	43.27
679.261	45.28
679.706	43.5
680.151	43.79
680.596	43.34
681.04	44.78
681.485	43.75
681.93	43.68
682.374	43.01
682.819	44.68
683.264	44.09
683.708	43.76
684.153	43.59
684.597	44.06
685.042	43.87
685.486	43.87
685.93	43.58
686.375	44.38
686.819	43.5
687.263	43.87
687.708	44.1
688.152	43.11
688.596	43.28
689.04	43.66
689.485	43
689.929	43.67
690.373	43.24
690.817	43.54
691.261	43.61
691.705	44.3
692.149	43.85
692.593	43.12
693.037	44.03
693.481	44.34
693.925	44.63
694.369	43.22
694.812	43.59
695.256	44.41
695.7	43.4
696.144	43.45
696.587	43.2
697.031	42.65
697.475	44.32
697.918	44.06
698.362	43.16
698.806	43.2
699.249	42.64
699.693	44.65
700.136	42.3
700.58	43.43
701.023	42.16
701.466	43.8
701.91	44.1
702.353	42.57
702.796	44.76
703.24	43.3
703.683	43.07
704.126	43.39
704.569	42.27
705.013	42.41
705.456	44.18
705.899	43.9
706.342	44.28
706.785	43.45
707.228	43.21
707.671	43.44
708.114	43.99
708.557	43.86
709	42.32
709.443	43.68
709.886	42.54
710.328	42.7
710.771	42.84
711.214	43.35
711.657	42.98
712.099	43.31
712.542	43.11
712.985	44.64
713.427	43.07
713.87	43.49
714.313	44.47
714.755	44.05
715.198	44.42
715.64	42.64
716.083	42.9
716.525	42.82
716.967	43.07
717.41	43.62
717.852	42.51
718.295	43.31
718.737	42.84
719.179	42.91
719.621	44.31
720.063	43.33
720.506	42.85
720.948	42.67
721.39	43.81
721.832	42.63
722.274	42.99
722.716	43.18
723.158	43.11
723.6	42.68
724.042	42.19
724.484	43.49
724.926	42.84
725.368	43.14
725.81	42.91
726.251	42.75
726.693	43.27
727.135	43.8
727.577	42.64
728.018	43.29
728.46	42.18
728.902	44.27
729.343	42.99
729.785	44.25
730.226	42.39
730.668	42.91
731.109	42.46
731.551	43.28
731.992	42.99
732.434	43.77
732.875	43.77
733.316	43.21
733.758	41.81
734.199	42.86
734.64	42.37
735.081	43.62
735.523	43.8
735.964	42.11
736.405	43.19
736.846	42.65
737.287	43.37
737.728	42.72
738.169	42.57
738.61	43.21
739.051	41.96
739.492	43.74
739.933	42.22
740.374	42.94
740.815	42.41
741.256	41.89
741.696	42.27
742.137	41.99
742.578	42.21
743.019	43.63
743.459	42.42
743.9	42.8
744.341	41.68
744.781	42.21
745.222	42.09
745.662	43.09
746.103	42.91
746.543	42.58
746.984	41.75
747.424	40.49
747.865	43.09
748.305	43.43
748.745	42.4
749.186	42.32
749.626	42.34
750.066	42.48
750.506	43.33
750.947	41.72
751.387	41.92
751.827	43.11
752.267	41.38
752.707	43.71
753.147	42.97
753.587	41.5
754.027	42.87
754.467	42.22
754.907	42.62
755.347	43.71
755.787	44.01
756.227	42.05
756.667	41.02
757.107	42.64
757.546	43.09
757.986	40.83
758.426	42.01
758.865	43.24
759.305	41.82
759.745	42.2
760.184	41.93
760.624	42.38
761.063	43.36
761.503	41.9
761.943	44.13
762.382	41.89
762.821	42.18
763.261	42.28
763.7	43.18
764.14	41.96
764.579	43.02
765.018	42
765.457	41.6
765.897	41.41
766.336	41.9
766.775	40.86
767.214	40.81
767.653	41.05
768.092	42.31
768.531	42.64
768.97	41.71
769.409	41.48
769.848	43.28
770.287	42.89
770.726	43.61
771.165	41.61
771.604	41.96
772.043	40.9
772.482	41.22
772.92	41.44
773.359	42.54
773.798	41.54
774.237	41.05
774.675	40.93
775.114	42.7
775.553	40.99
775.991	42.35
776.43	40.83
776.868	41.98
777.307	41.85
777.745	41.21
778.184	41.7
778.622	41.56
779.06	41.54
779.499	41.39
779.937	41.58
780.375	41.32
780.814	41.03
781.252	41.64
781.69	42.43
782.128	41.17
782.566	41.19
783.004	40.97
783.443	42.03
783.881	41.8
784.319	42.34
784.757	42.14
785.195	41.91
785.633	42.41
786.071	41.36
786.508	42.29
786.946	41.44
787.384	41.71
787.822	41.88
788.26	41.88
788.697	42.1
789.135	41.81
789.573	41.11
790.011	40.74
790.448	42.13
790.886	42.13
791.323	40.44
791.761	40.64
792.198	42.46
792.636	42.11
793.073	41.35
793.511	41.36
793.948	41.52
794.386	42.52
794.823	41.88
795.26	42.09
795.698	41.7
796.135	41.53
796.572	40.67
797.009	42.77
797.446	41.8
797.884	41.64
798.321	41.02
798.758	40.81
799.195	41.66
799.632	41.33
800.069	41.23
800.506	41.34
800.943	40.57
801.38	41.47
801.817	40.98
802.254	42.02
802.69	42.3
803.127	41.54
803.564	41.6
804.001	41.85
804.438	42.66
804.874	41.44
805.311	40.39
805.748	40.25
