Data from JCR0004_YellowVentral_Reflection_00002.txt Node
Date: Wed Jul 22 13:47:10 ACST 2020
User: Stacey Dix
Spectrometer: MAYP113282
Scans to average: 1
Trigger mode: 0
Integration Time (sec): 1.000000E-1
Electric dark correction enabled: true
Boxcar width: 0
XAxis mode: Wavelengths
Number of Pixels in Spectrum: 2068
>>>>>Begin Spectral Data<<<<<
198.791	-322.22
199.266	966.67
199.74	90.48
200.215	-4.76
200.69	17.95
201.164	15.41
201.639	31.59
202.114	37.12
202.588	22.16
203.063	26.08
203.537	52.17
204.012	39.55
204.486	20.41
204.961	5.71
205.435	0.16
205.909	26.64
206.384	13.6
206.858	13.82
207.332	24.07
207.807	40.68
208.281	19.16
208.755	22.17
209.229	34.82
209.703	23.58
210.177	21.49
210.651	29.08
211.126	24.82
211.6	29.38
212.074	25.23
212.548	34.95
213.021	20.61
213.495	20.35
213.969	22.5
214.443	30.33
214.917	29.47
215.391	25.02
215.864	29.76
216.338	24.52
216.812	15.23
217.286	26.39
217.759	28.35
218.233	21.2
218.706	25.28
219.18	18.7
219.654	29.45
220.127	19
220.6	26.03
221.074	24.62
221.547	19.13
222.021	23.04
222.494	19.11
222.967	13.88
223.441	14.35
223.914	23.03
224.387	18.34
224.86	20.22
225.334	16.84
225.807	18.34
226.28	23.14
226.753	15.7
227.226	18.91
227.699	19.94
228.172	16.82
228.645	19.67
229.118	18.45
229.591	16
230.064	17.57
230.537	19.79
231.01	18.54
231.482	18.11
231.955	21.56
232.428	17.56
232.901	20.5
233.373	17.28
233.846	18.78
234.319	16.52
234.791	19.01
235.264	17.27
235.736	18.8
236.209	19.13
236.681	16.11
237.154	19.2
237.626	18.77
238.099	17.43
238.571	16.18
239.044	17.08
239.516	17.14
239.988	17.33
240.46	16.14
240.933	17.86
241.405	16.42
241.877	18.16
242.349	16.94
242.821	17.69
243.293	14.98
243.765	16.03
244.237	15.55
244.71	16.33
245.181	15.17
245.653	16.1
246.125	14.53
246.597	14.78
247.069	16.58
247.541	15.04
248.013	15.48
248.485	16.51
248.956	15.27
249.428	15.23
249.9	14.77
250.371	16
250.843	14.92
251.315	14.93
251.786	13.71
252.258	14.45
252.729	15.26
253.201	14.87
253.672	16.38
254.144	14.89
254.615	15.64
255.086	15.05
255.558	14.19
256.029	14.82
256.5	15.13
256.972	15.93
257.443	15.84
257.914	14.55
258.385	14.99
258.856	14.49
259.327	15.48
259.799	14.82
260.27	14.38
260.741	14.61
261.212	14.34
261.683	14.78
262.154	14.95
262.624	14.51
263.095	14.06
263.566	15.47
264.037	13.74
264.508	13.66
264.979	15.65
265.449	14.88
265.92	14.44
266.391	14.05
266.861	14.45
267.332	15.49
267.803	13.73
268.273	14.05
268.744	14.69
269.214	14.39
269.685	13.86
270.155	14.42
270.626	14.86
271.096	15.14
271.566	14.08
272.037	15.27
272.507	14.69
272.977	13.61
273.448	13.49
273.918	14.48
274.388	14.26
274.858	14.71
275.328	14.64
275.798	13.91
276.268	13.53
276.738	15.68
277.208	14.02
277.678	15.04
278.148	14.22
278.618	15.78
279.088	14.39
279.558	14.35
280.028	13.93
280.498	13.92
280.968	14.06
281.437	13.62
281.907	14.9
282.377	14.33
282.847	14
283.316	14.85
283.786	14.17
284.255	14.17
284.725	14.61
285.194	13.36
285.664	14.12
286.133	13.59
286.603	13.5
287.072	14.2
287.542	14.4
288.011	14.83
288.48	15.08
288.95	14.35
289.419	14.47
289.888	14.44
290.357	14.96
290.827	13.87
291.296	14.47
291.765	14.23
292.234	14.97
292.703	14.29
293.172	14.57
293.641	14.86
294.11	13.74
294.579	14.95
295.048	14.74
295.517	13.78
295.986	14.36
296.455	14.62
296.923	14.58
297.392	14.9
297.861	14.79
298.33	15.31
298.798	15.5
299.267	14.77
299.736	14.74
300.204	14.63
300.673	15.21
301.141	15.19
301.61	14.71
302.079	15.46
302.547	15.65
303.015	14.74
303.484	15.12
303.952	14.84
304.421	15.79
304.889	15.15
305.357	15.54
305.825	15.26
306.294	14.9
306.762	15.71
307.23	15.39
307.698	14.98
308.166	15.81
308.634	16.07
309.103	15.57
309.571	15.08
310.039	16.87
310.507	15.61
310.975	15.36
311.442	16.46
311.91	15.64
312.378	16.85
312.846	16.8
313.314	17.14
313.782	15.51
314.249	16
314.717	15.57
315.185	16.5
315.652	17.1
316.12	16.94
316.588	16.95
317.055	16.72
317.523	17.45
317.99	16.01
318.458	16.58
318.925	17.32
319.393	16.11
319.86	17.3
320.328	16.47
320.795	16.24
321.262	17.11
321.73	16.45
322.197	16.77
322.664	15.54
323.131	17.41
323.598	16.89
324.066	15.63
324.533	15.87
325	16.79
325.467	16.9
325.934	16.44
326.401	16.11
326.868	17.34
327.335	16.91
327.802	16.92
328.269	17.01
328.735	17.45
329.202	16.87
329.669	16.88
330.136	16.34
330.603	16.64
331.069	18.01
331.536	17.08
332.003	16.26
332.469	16.78
332.936	16.95
333.402	16.76
333.869	18.04
334.336	17.85
334.802	16.41
335.268	17.84
335.735	17.01
336.201	18.66
336.668	17.29
337.134	17.6
337.6	17.48
338.067	15.97
338.533	16.69
338.999	15.36
339.465	16
339.931	18.05
340.398	16.11
340.864	17
341.33	16.87
341.796	16.98
342.262	16.86
342.728	17.2
343.194	16.65
343.66	17.22
344.126	16.11
344.592	17.55
345.057	16.13
345.523	16.44
345.989	17.25
346.455	16.55
346.921	17.56
347.386	16.16
347.852	16.72
348.318	16.76
348.783	16.42
349.249	16.31
349.714	17.89
350.18	16.44
350.645	16.78
351.111	15.79
351.576	16.79
352.042	16.95
352.507	16.93
352.973	17.01
353.438	15.97
353.903	16.44
354.369	16.57
354.834	16.62
355.299	15.74
355.764	16.84
356.229	16.74
356.695	16.75
357.16	16.44
357.625	17.26
358.09	16.57
358.555	17.23
359.02	16.16
359.485	15.71
359.95	16.04
360.415	17.74
360.879	16.45
361.344	15.35
361.809	17.9
362.274	15.43
362.739	15.87
363.203	15.84
363.668	16.26
364.133	15.31
364.597	16.11
365.062	15.75
365.527	16.57
365.991	16.15
366.456	16.14
366.92	16.77
367.385	16.54
367.849	15.58
368.314	15.46
368.778	16.56
369.242	15.68
369.707	17.24
370.171	15.36
370.635	16.5
371.1	16.47
371.564	16.43
372.028	16.16
372.492	16.03
372.956	16.62
373.42	17.06
373.884	16.21
374.348	16.64
374.812	15.48
375.276	17.76
375.74	14.9
376.204	15.26
376.668	16.28
377.132	17.17
377.596	15.59
378.06	15.96
378.524	16.63
378.987	15.35
379.451	15.58
379.915	14.76
380.378	16.41
380.842	16.27
381.306	16.04
381.769	16.09
382.233	14.79
382.696	16.73
383.16	15.81
383.623	14.61
384.087	16
384.55	15.4
385.014	15.66
385.477	15.75
385.94	14.63
386.404	16.28
386.867	15.8
387.33	15.67
387.793	16.74
388.256	13.84
388.72	15.35
389.183	14.81
389.646	14.99
390.109	15.1
390.572	15.3
391.035	16.83
391.498	15.54
391.961	15.8
392.424	15.46
392.887	15.12
393.35	15.91
393.812	14.48
394.275	15.64
394.738	15.61
395.201	15.22
395.664	14.43
396.126	15.68
396.589	15.49
397.052	15.33
397.514	15.59
397.977	14.31
398.439	15.6
398.902	14.5
399.364	15.44
399.827	15.98
400.289	15.94
400.752	15.03
401.214	15.35
401.676	14.89
402.139	14.88
402.601	15.44
403.063	15.4
403.525	14.48
403.988	14.93
404.45	14.91
404.912	14.75
405.374	13.9
405.836	14.33
406.298	13.52
406.76	15.14
407.222	15.56
407.684	15.3
408.146	15.46
408.608	14.79
409.07	15.04
409.532	15.86
409.994	13.89
410.456	14.56
410.917	15.19
411.379	13.94
411.841	15.03
412.303	15.17
412.764	13.79
413.226	15.37
413.687	14.48
414.149	15.3
414.611	15
415.072	14.96
415.534	15.36
415.995	14.27
416.457	15.85
416.918	14.8
417.379	15.06
417.841	14.6
418.302	15.65
418.763	15.14
419.225	14.19
419.686	15.95
420.147	15.99
420.608	15.24
421.069	15.46
421.53	14.15
421.991	14.5
422.453	14.59
422.914	15.08
423.375	14.63
423.836	14.27
424.297	15.14
424.757	14.71
425.218	15.88
425.679	14.63
426.14	13.52
426.601	14.22
427.062	14.88
427.522	14.08
427.983	14.96
428.444	12.84
428.904	14.13
429.365	13.59
429.826	13.7
430.286	15.53
430.747	14.3
431.207	14.31
431.668	13.55
432.128	12.64
432.589	13.29
433.049	14.21
433.509	13.76
433.97	13.86
434.43	15.08
434.89	14.98
435.351	12.83
435.811	13.59
436.271	15.12
436.731	13.19
437.191	15.41
437.651	14.91
438.112	13.69
438.572	12.77
439.032	14.67
439.492	12.74
439.952	13.99
440.412	14.02
440.871	14.1
441.331	14.89
441.791	14.69
442.251	15.18
442.711	13.94
443.171	13.45
443.63	13.97
444.09	14.86
444.55	14.49
445.009	13.78
445.469	12.69
445.929	14.49
446.388	13.82
446.848	14.85
447.307	15.23
447.767	13.25
448.226	12.37
448.686	15.87
449.145	14.4
449.604	14.09
450.064	14.33
450.523	13.71
450.982	13.29
451.442	13.69
451.901	14.17
452.36	14.88
452.819	15.08
453.278	15.29
453.737	13.52
454.197	14.12
454.656	15.18
455.115	13.54
455.574	15.38
456.033	13.66
456.492	14.56
456.95	14.55
457.409	14.08
457.868	13.17
458.327	13.15
458.786	13.12
459.245	15.13
459.703	13.64
460.162	15.09
460.621	13.17
461.079	14.23
461.538	14.7
461.997	14.82
462.455	14.7
462.914	14.56
463.372	15.13
463.831	13.21
464.289	14.19
464.748	14.05
465.206	14.16
465.664	15.07
466.123	15.2
466.581	15.42
467.039	13.81
467.497	13.3
467.956	14.76
468.414	14.93
468.872	15.02
469.33	14.45
469.788	15.01
470.246	15.76
470.704	15.3
471.162	16.16
471.62	15.33
472.078	15.61
472.536	13.74
472.994	14.86
473.452	13.93
473.91	13.63
474.368	15.02
474.826	15.11
475.283	16.78
475.741	13.43
476.199	15.07
476.656	15.32
477.114	15.52
477.572	15.4
478.029	12.68
478.487	15.88
478.944	14.2
479.402	15.49
479.859	17.44
480.317	16.06
480.774	16.11
481.232	14.09
481.689	15.02
482.146	16.25
482.604	15.44
483.061	16.21
483.518	13.5
483.975	17.52
484.433	15.93
484.89	16.49
485.347	17.96
485.804	18.07
486.261	16.98
486.718	14.97
487.175	17.43
487.632	14.8
488.089	15.58
488.546	15.74
489.003	18.06
489.46	17.64
489.917	16.33
490.373	15.44
490.83	15.37
491.287	17.41
491.744	17.28
492.2	17.47
492.657	18.03
493.114	15.82
493.57	17.51
494.027	17.99
494.484	18.62
494.94	15.66
495.397	16.19
495.853	16.83
496.31	17.54
496.766	17.2
497.222	16.59
497.679	17.69
498.135	18.87
498.591	18.35
499.048	17.88
499.504	18.75
499.96	17.62
500.416	17.99
500.872	19.7
501.329	17.61
501.785	18.63
502.241	19.01
502.697	19.19
503.153	18.46
503.609	18.44
504.065	17.94
504.521	18.2
504.977	18.24
505.432	19.49
505.888	18.24
506.344	19.38
506.8	18.89
507.256	18.52
507.711	19.69
508.167	19.16
508.623	19.46
509.078	19.54
509.534	19.95
509.99	19.61
510.445	19.64
510.901	18.55
511.356	19.71
511.812	18.46
512.267	18.46
512.722	19.52
513.178	20.45
513.633	19.61
514.089	20.11
514.544	19.13
514.999	19.23
515.454	19.46
515.91	19.02
516.365	18.41
516.82	20.08
517.275	21.81
517.73	19.09
518.185	21.15
518.64	19.98
519.095	20.63
519.55	20.33
520.005	20.66
520.46	20.57
520.915	21.25
521.37	21.57
521.825	20.93
522.28	19.74
522.734	21.41
523.189	21.55
523.644	19.72
524.099	19.82
524.553	22.66
525.008	21.08
525.462	19.61
525.917	21.71
526.372	22.12
526.826	21.76
527.281	22.63
527.735	22.23
528.19	20.83
528.644	21.44
529.098	21.6
529.553	20.9
530.007	21.88
530.461	22.99
530.916	23.15
531.37	22.1
531.824	22.08
532.278	21.36
532.732	22.81
533.186	23.29
533.641	22.8
534.095	23.6
534.549	22.09
535.003	23.32
535.457	22.4
535.911	23.31
536.365	23.87
536.818	23.72
537.272	23.86
537.726	22.96
538.18	22.43
538.634	23.6
539.087	24.02
539.541	22.74
539.995	24.02
540.449	25.35
540.902	24.85
541.356	25.8
541.809	24.08
542.263	23.24
542.716	24.18
543.17	24.22
543.623	23.21
544.077	25.44
544.53	26.54
544.984	25.66
545.437	27.59
545.89	23.94
546.344	26.11
546.797	24.64
547.25	24.76
547.703	27.75
548.157	27.42
548.61	26.46
549.063	27.38
549.516	27.72
549.969	28.53
550.422	26.68
550.875	27.82
551.328	27.8
551.781	26.3
552.234	27.04
552.687	29.13
553.14	27.72
553.592	27.48
554.045	28.57
554.498	27.03
554.951	26.33
555.404	29.35
555.856	29.47
556.309	29.14
556.762	29.67
557.214	29.05
557.667	27.7
558.119	28.2
558.572	27.98
559.024	29.08
559.477	28.87
559.929	28.81
560.382	29.01
560.834	29.89
561.286	28.01
561.739	29.39
562.191	29.15
562.643	30
563.095	30.9
563.548	30.76
564	30.24
564.452	30.54
564.904	31.16
565.356	30.41
565.808	31.45
566.26	30.9
566.712	30.79
567.164	31.56
567.616	32.11
568.068	30.79
568.52	31.78
568.972	31.08
569.424	32.35
569.876	32.17
570.327	32.2
570.779	32.74
571.231	31.57
571.682	31.51
572.134	32.69
572.586	32.84
573.037	32.97
573.489	32.44
573.941	32.72
574.392	33.85
574.844	32.03
575.295	34.15
575.746	32.92
576.198	32.01
576.649	32.8
577.101	33.2
577.552	32.49
578.003	33.01
578.454	33.02
578.906	32.98
579.357	33.14
579.808	34.33
580.259	34.67
580.71	33.9
581.161	33.89
581.612	33.32
582.064	33.79
582.515	34.28
582.965	34.05
583.416	33.31
583.867	34.75
584.318	33.97
584.769	35.54
585.22	34.19
585.671	33.96
586.122	34.69
586.572	33.94
587.023	33.96
587.474	35.4
587.924	34.87
588.375	33.83
588.826	34.5
589.276	33.98
589.727	34.9
590.177	34.73
590.628	34.6
591.078	34.12
591.529	35.15
591.979	35.61
592.429	35.29
592.88	35.42
593.33	35.57
593.78	35.08
594.231	36.63
594.681	35.18
595.131	36.35
595.581	34.36
596.031	36.1
596.481	36.98
596.932	35.63
597.382	36.55
597.832	36.74
598.282	37.05
598.732	35.57
599.182	35.66
599.632	35.62
600.081	36.09
600.531	37.04
600.981	35.64
601.431	37.33
601.881	36.36
602.33	37.9
602.78	36.26
603.23	36.49
603.679	36.46
604.129	36.33
604.579	36.27
605.028	34.98
605.478	37.13
605.927	36.42
606.377	36.98
606.826	36.85
607.276	36.96
607.725	36.98
608.175	36.78
608.624	35.58
609.073	36.41
609.522	37.63
609.972	38.31
610.421	36.79
610.87	36.91
611.319	35.64
611.768	38.44
612.218	36.53
612.667	37.15
613.116	38.64
613.565	37.33
614.014	38.52
614.463	36.25
614.912	36.94
615.361	36.55
615.81	37.48
616.258	37.64
616.707	36.44
617.156	37.38
617.605	36.95
618.054	38.08
618.502	37.12
618.951	36.54
619.4	37.35
619.848	37.01
620.297	37.31
620.745	38.34
621.194	37.48
621.642	36.64
622.091	37.86
622.539	38.87
622.988	37.12
623.436	38.53
623.885	37.15
624.333	36.8
624.781	37.25
625.23	37.22
625.678	38.7
626.126	37.75
626.574	38.26
627.022	38.17
627.471	37.67
627.919	38.41
628.367	37.92
628.815	38.04
629.263	38.22
629.711	37.96
630.159	38.53
630.607	38.56
631.055	37.77
631.503	39.46
631.95	39.11
632.398	38.89
632.846	36.74
633.294	38.1
633.742	39.09
634.189	37.71
634.637	38.62
635.085	37.6
635.532	38.04
635.98	38.31
636.427	39.06
636.875	39.5
637.323	38.06
637.77	38.83
638.217	38.16
638.665	39.08
639.112	37.92
639.56	38.93
640.007	37.53
640.454	38.44
640.902	39.4
641.349	37.9
641.796	39.88
642.243	39.46
642.69	38.59
643.138	38.74
643.585	38.19
644.032	39.67
644.479	38.32
644.926	39.51
645.373	39.65
645.82	39.16
646.267	39.48
646.714	38.54
647.161	40.26
647.607	39.28
648.054	38.8
648.501	38.93
648.948	39.46
649.395	39.61
649.841	38.55
650.288	40.19
650.735	38.21
651.181	39.5
651.628	39.08
652.075	39.29
652.521	39.47
652.968	38.39
653.414	37.77
653.861	38.48
654.307	39.15
654.753	39.67
655.2	39.14
655.646	38.93
656.092	38.71
656.539	38.58
656.985	38.9
657.431	37.9
657.877	39.5
658.324	38.78
658.77	39.65
659.216	38.82
659.662	39.9
660.108	38.58
660.554	39.86
661	39.74
661.446	39.72
661.892	38.58
662.338	39.48
662.784	38.71
663.23	39.41
663.675	38.75
664.121	39.96
664.567	38.97
665.013	40.18
665.458	40.33
665.904	38.34
666.35	37.89
666.795	38.87
667.241	38.8
667.687	39.07
668.132	39.75
668.578	38.98
669.023	39.41
669.469	39.86
669.914	40.09
670.359	39.65
670.805	39.72
671.25	40.35
671.695	39.27
672.141	39.29
672.586	40.21
673.031	39.25
673.476	38.98
673.922	39.86
674.367	39.82
674.812	38.97
675.257	39.95
675.702	40.24
676.147	39.77
676.592	39.2
677.037	38.93
677.482	39.41
677.927	39.63
678.372	39.15
678.817	38.48
679.261	39.55
679.706	39.6
680.151	39.05
680.596	38.84
681.04	39.68
681.485	39.34
681.93	39.41
682.374	39.6
682.819	40.01
683.264	39.37
683.708	39.72
684.153	39.59
684.597	38.7
685.042	39.55
685.486	38.33
685.93	38.92
686.375	39.25
686.819	39.05
687.263	39.39
687.708	38.89
688.152	38.7
688.596	39.5
689.04	38.28
689.485	38.5
689.929	39.6
690.373	39.77
690.817	39.74
691.261	38.92
691.705	38.12
692.149	39.63
692.593	38.87
693.037	38.84
693.481	39.34
693.925	38.92
694.369	40.02
694.812	40.54
695.256	39.32
695.7	38.99
696.144	39.66
696.587	39.4
697.031	39.17
697.475	38.93
697.918	38.93
698.362	39.62
698.806	40.05
699.249	40.61
699.693	39.42
700.136	39.96
700.58	39.3
701.023	39.12
701.466	39.98
701.91	40.53
702.353	39.28
702.796	39.38
703.24	40.01
703.683	39.33
704.126	39.6
704.569	39.56
705.013	39.13
705.456	38.85
705.899	39.15
706.342	38.44
706.785	38.63
707.228	39.29
707.671	39.28
708.114	39.51
708.557	39.47
709	39.37
709.443	39.76
709.886	39.48
710.328	39.68
710.771	38.68
711.214	39.36
711.657	38.29
712.099	39.32
712.542	39.75
712.985	39.6
713.427	38.54
713.87	39.07
714.313	38.92
714.755	39.21
715.198	38.23
715.64	38.9
716.083	40.11
716.525	39.04
716.967	39.67
717.41	39.19
717.852	39.27
718.295	38.53
718.737	39.74
719.179	39.52
719.621	39.23
720.063	39.3
720.506	39.48
720.948	39.31
721.39	39.26
721.832	39.17
722.274	39.84
722.716	38.84
723.158	38.82
723.6	39.89
724.042	39.89
724.484	39.6
724.926	38.61
725.368	39.09
725.81	39.2
726.251	39.31
726.693	38.46
727.135	38.71
727.577	39.06
728.018	39.34
728.46	38.7
728.902	39.16
729.343	39.47
729.785	38.73
730.226	39.4
730.668	38.65
731.109	39.38
731.551	39.55
731.992	39.03
732.434	39.42
732.875	38.39
733.316	39.6
733.758	38.94
734.199	39.05
734.64	38.62
735.081	38.89
735.523	38.59
735.964	38.79
736.405	38.74
736.846	38.23
737.287	38.14
737.728	37.97
738.169	38.49
738.61	38.26
739.051	38.65
739.492	38.76
739.933	38.54
740.374	38.53
740.815	38.34
741.256	38.27
741.696	38.46
742.137	39.01
742.578	38.85
743.019	39.4
743.459	38.82
743.9	39.63
744.341	38.15
744.781	39.11
745.222	38.34
745.662	38.88
746.103	39.12
746.543	38.09
746.984	38.7
747.424	38.26
747.865	39.62
748.305	38.9
748.745	38.61
749.186	39.13
749.626	38.93
750.066	38.18
750.506	37.89
750.947	38.44
751.387	38.31
751.827	38.03
752.267	38.32
752.707	38.12
753.147	38.67
753.587	38.51
754.027	38.89
754.467	39.31
754.907	38.8
755.347	38.57
755.787	38.56
756.227	38.28
756.667	38.82
757.107	39.99
757.546	38.55
757.986	37.78
758.426	38.72
758.865	38.73
759.305	38.68
759.745	38.51
760.184	38.26
760.624	38.2
761.063	38.79
761.503	37.5
761.943	38.24
762.382	39.03
762.821	38.03
763.261	38.75
763.7	38.06
764.14	39.2
764.579	38.36
765.018	37.75
765.457	38.63
765.897	38.05
766.336	38.24
766.775	38.39
767.214	38.22
767.653	38.54
768.092	38.22
768.531	39.01
768.97	38.41
769.409	38.25
769.848	38.85
770.287	38.68
770.726	37.57
771.165	38.92
771.604	37.92
772.043	38.66
772.482	37.51
772.92	38.5
773.359	38.75
773.798	38.1
774.237	38.69
774.675	38.78
775.114	37.66
775.553	39.02
775.991	38.63
776.43	38.55
776.868	37.84
777.307	37.9
777.745	38.27
778.184	38.29
778.622	37.85
779.06	38.95
779.499	38.42
779.937	38.32
780.375	37.58
780.814	37.88
781.252	38.67
781.69	38.45
782.128	37.89
782.566	37.59
783.004	37.54
783.443	38.35
783.881	37.89
784.319	37.85
784.757	37.5
785.195	37.72
785.633	38.64
786.071	37.57
786.508	38.01
786.946	37.55
787.384	37.42
787.822	38.4
788.26	38.21
788.697	37.89
789.135	37.43
789.573	37.78
790.011	37.76
790.448	39.17
790.886	37.5
791.323	37.8
791.761	37.75
792.198	38.34
792.636	38
793.073	38.75
793.511	38.43
793.948	37.71
794.386	37.71
794.823	38.36
795.26	37.88
795.698	37.83
796.135	38.08
796.572	37.69
797.009	38.52
797.446	37.56
797.884	37.87
798.321	38.21
798.758	37.47
799.195	38.27
799.632	38.08
800.069	37.43
800.506	37.6
800.943	38.01
801.38	37.67
801.817	37.58
802.254	37.9
802.69	37.78
803.127	37.9
803.564	37.24
804.001	37.99
804.438	37.46
804.874	37.54
805.311	37.94
