Data from JCR0026_YellowVentral_Reflection_00003.txt Node
Date: Fri Jul 31 12:11:23 ACST 2020
User: Stacey Dix
Spectrometer: MAYP113282
Scans to average: 1
Trigger mode: 0
Integration Time (sec): 1.000000E-1
Electric dark correction enabled: true
Boxcar width: 0
XAxis mode: Wavelengths
Number of Pixels in Spectrum: 2068
>>>>>Begin Spectral Data<<<<<
198.791	36.36
199.266	162.5
199.74	20
200.215	-100
200.69	56.85
201.164	91.8
201.639	62.93
202.114	49.49
202.588	81.49
203.063	68.53
203.537	70.71
204.012	53.59
204.486	73.62
204.961	26.07
205.435	43.92
205.909	56.39
206.384	53.51
206.858	52.21
207.332	66.29
207.807	45.03
208.281	64.19
208.755	39.04
209.229	60.31
209.703	64.41
210.177	68.27
210.651	35.81
211.126	43.66
211.6	45.28
212.074	54.74
212.548	54.89
213.021	26.69
213.495	55.53
213.969	46.69
214.443	37.56
214.917	38.83
215.391	26.08
215.864	43.07
216.338	26.59
216.812	40.89
217.286	43.04
217.759	45.47
218.233	26.78
218.706	28.01
219.18	29.2
219.654	39.3
220.127	22.89
220.6	18.47
221.074	31.04
221.547	27.01
222.021	30.45
222.494	23.06
222.967	19.45
223.441	24.04
223.914	24.24
224.387	16.93
224.86	18.23
225.334	17.82
225.807	19.43
226.28	13.36
226.753	13.73
227.226	14.68
227.699	14.3
228.172	17.5
228.645	11.26
229.118	8.61
229.591	12.42
230.064	10.37
230.537	11.24
231.01	9.67
231.482	9.97
231.955	8.54
232.428	8.52
232.901	10.46
233.373	7.58
233.846	7.21
234.319	5.89
234.791	7.24
235.264	9.02
235.736	7.86
236.209	8.63
236.681	6.52
237.154	8.3
237.626	8.85
238.099	9.48
238.571	7.38
239.044	7.48
239.516	7.25
239.988	7.47
240.46	7.37
240.933	4.65
241.405	7.61
241.877	6.49
242.349	7.78
242.821	6.81
243.293	8.14
243.765	6.66
244.237	6.44
244.71	6.29
245.181	4.85
245.653	7.04
246.125	7.35
246.597	7.54
247.069	6.39
247.541	7.6
248.013	6
248.485	6.34
248.956	5.77
249.428	5.65
249.9	7.02
250.371	5.49
250.843	6.59
251.315	6.48
251.786	4.89
252.258	5.85
252.729	5.81
253.201	6.1
253.672	4.72
254.144	5.76
254.615	4.21
255.086	4.77
255.558	4.97
256.029	4.33
256.5	4.42
256.972	4.73
257.443	4.46
257.914	4.5
258.385	4.63
258.856	4.26
259.327	4.98
259.799	4.85
260.27	4.25
260.741	4.11
261.212	3.43
261.683	4.4
262.154	4.39
262.624	3.8
263.095	4.53
263.566	4.05
264.037	4.5
264.508	3.98
264.979	4.42
265.449	3.81
265.92	4.55
266.391	3.92
266.861	4.71
267.332	4.16
267.803	4.07
268.273	4.17
268.744	3.86
269.214	3.99
269.685	4.32
270.155	3.93
270.626	5.39
271.096	4.61
271.566	4.56
272.037	3.94
272.507	4.79
272.977	3.63
273.448	4.97
273.918	4.34
274.388	3.51
274.858	3.48
275.328	4.52
275.798	3.76
276.268	4.59
276.738	4.71
277.208	4.59
277.678	4.33
278.148	4.21
278.618	3.55
279.088	4.12
279.558	3.59
280.028	3.19
280.498	3.44
280.968	3.97
281.437	4.01
281.907	3.8
282.377	3.35
282.847	3.87
283.316	3.65
283.786	3.83
284.255	3.81
284.725	4.16
285.194	4.48
285.664	3.98
286.133	3.34
286.603	3.19
287.072	4.01
287.542	3.26
288.011	3.62
288.48	3.55
288.95	3.95
289.419	3.97
289.888	2.84
290.357	3.64
290.827	3.6
291.296	3.77
291.765	2.71
292.234	4.01
292.703	3.62
293.172	4.04
293.641	2.85
294.11	3.96
294.579	3.38
295.048	4.22
295.517	2.88
295.986	3.63
296.455	3.74
296.923	3.98
297.392	3.92
297.861	3.87
298.33	3.96
298.798	3.58
299.267	4.74
299.736	4.21
300.204	4.05
300.673	4.16
301.141	3.96
301.61	3.66
302.079	3.68
302.547	4.49
303.015	4.22
303.484	3.91
303.952	4.27
304.421	4.14
304.889	4.26
305.357	4.31
305.825	4.24
306.294	4.72
306.762	4.39
307.23	5.18
307.698	4.49
308.166	4.21
308.634	3.87
309.103	4.74
309.571	4.98
310.039	4.6
310.507	4.68
310.975	4.75
311.442	4.8
311.91	3.97
312.378	5.45
312.846	4.46
313.314	4.74
313.782	4.67
314.249	4.47
314.717	4.73
315.185	4.87
315.652	5.63
316.12	5.3
316.588	4.96
317.055	5.43
317.523	5.32
317.99	6.12
318.458	5.49
318.925	5.61
319.393	5.57
319.86	5.93
320.328	5.4
320.795	5.76
321.262	6.26
321.73	4.01
322.197	6.33
322.664	6.32
323.131	6.71
323.598	5.83
324.066	5.67
324.533	5.8
325	7.24
325.467	6.16
325.934	6.45
326.401	7.12
326.868	6.44
327.335	6.64
327.802	7.49
328.269	7.65
328.735	6.95
329.202	7.66
329.669	7.56
330.136	7.92
330.603	8.1
331.069	8.1
331.536	8
332.003	8.5
332.469	7.84
332.936	8.5
333.402	8.52
333.869	8.51
334.336	8.66
334.802	8.21
335.268	7.82
335.735	8.64
336.201	8.1
336.668	8.54
337.134	7.76
337.6	8.02
338.067	8.44
338.533	8.1
338.999	8.43
339.465	8.32
339.931	9.15
340.398	8.66
340.864	8.58
341.33	8.31
341.796	9.19
342.262	9.27
342.728	8.33
343.194	8.39
343.66	7.87
344.126	8.52
344.592	9.48
345.057	8.65
345.523	7.9
345.989	8.91
346.455	8.6
346.921	9.42
347.386	9.41
347.852	9.33
348.318	7.59
348.783	9
349.249	7.48
349.714	8.76
350.18	8.59
350.645	9.14
351.111	7.61
351.576	7.54
352.042	8.9
352.507	9.56
352.973	8.67
353.438	8.37
353.903	9.66
354.369	7.91
354.834	9.14
355.299	8.9
355.764	8.07
356.229	8.65
356.695	8.11
357.16	8.38
357.625	8.91
358.09	8.75
358.555	7.96
359.02	8.34
359.485	7.76
359.95	7.47
360.415	8.73
360.879	10.02
361.344	9.29
361.809	10.01
362.274	7.62
362.739	9.4
363.203	8.34
363.668	7.65
364.133	8.31
364.597	8.38
365.062	8.73
365.527	9.64
365.991	7.65
366.456	9.47
366.92	9.53
367.385	9.21
367.849	8.18
368.314	7.83
368.778	8.67
369.242	9.13
369.707	7.71
370.171	8.42
370.635	8.75
371.1	8.57
371.564	9.34
372.028	9.48
372.492	8.95
372.956	8.43
373.42	8.87
373.884	8.71
374.348	9.38
374.812	9.75
375.276	8.83
375.74	8.44
376.204	8.71
376.668	8.85
377.132	8.83
377.596	8.82
378.06	8.78
378.524	8.05
378.987	8.96
379.451	8.02
379.915	8.13
380.378	8.87
380.842	8.06
381.306	8.84
381.769	8.32
382.233	9.69
382.696	8.92
383.16	9.01
383.623	7.63
384.087	8.24
384.55	7.87
385.014	8.18
385.477	9.62
385.94	9.21
386.404	9.72
386.867	9
387.33	8.55
387.793	8.59
388.256	8.81
388.72	8.56
389.183	8.74
389.646	8.38
390.109	8.43
390.572	9.07
391.035	7.38
391.498	7.75
391.961	8.91
392.424	8.21
392.887	8.52
393.35	8.41
393.812	8.41
394.275	7.72
394.738	8.5
395.201	8.66
395.664	8.29
396.126	9.41
396.589	8.22
397.052	8.88
397.514	7.9
397.977	8.2
398.439	8.73
398.902	8.74
399.364	7.4
399.827	9.21
400.289	8.72
400.752	8.83
401.214	9.38
401.676	7.86
402.139	8.78
402.601	8.21
403.063	8.38
403.525	9.37
403.988	9.55
404.45	7.99
404.912	7.94
405.374	8.39
405.836	6.94
406.298	9.31
406.76	7.37
407.222	7.99
407.684	7.85
408.146	8.85
408.608	8.03
409.07	8.8
409.532	7.29
409.994	7.92
410.456	8.01
410.917	8.19
411.379	8.53
411.841	8.17
412.303	7.86
412.764	9.03
413.226	7.69
413.687	7.32
414.149	9.21
414.611	7.64
415.072	8.14
415.534	7.75
415.995	7.94
416.457	7.98
416.918	8.22
417.379	7.87
417.841	7.6
418.302	7.51
418.763	8.6
419.225	8.67
419.686	7.87
420.147	7.32
420.608	8.52
421.069	8.55
421.53	8.03
421.991	7.91
422.453	8.29
422.914	8.86
423.375	7.92
423.836	8.51
424.297	8.13
424.757	8.45
425.218	7.31
425.679	9.01
426.14	8.28
426.601	8.37
427.062	8.95
427.522	6.56
427.983	6.85
428.444	9.14
428.904	8.17
429.365	8.03
429.826	7.94
430.286	6.88
430.747	10.59
431.207	8.37
431.668	10.06
432.128	8.01
432.589	8.3
433.049	9.21
433.509	8.56
433.97	8.01
434.43	8.42
434.89	9.72
435.351	8.04
435.811	9.54
436.271	8.3
436.731	8.87
437.191	10.35
437.651	9.34
438.112	8.86
438.572	9.51
439.032	8.72
439.492	8.01
439.952	9.46
440.412	9.09
440.871	8.72
441.331	9.55
441.791	9.33
442.251	8.54
442.711	9.15
443.171	8.59
443.63	9.7
444.09	9.17
444.55	9.16
445.009	8.67
445.469	7.71
445.929	9.52
446.388	7.78
446.848	10.34
447.307	9.68
447.767	8.65
448.226	10.69
448.686	8.92
449.145	9.08
449.604	8.58
450.064	9.24
450.523	10.71
450.982	9.66
451.442	9.22
451.901	11.04
452.36	9.46
452.819	8.87
453.278	9.57
453.737	10.51
454.197	8.74
454.656	9.8
455.115	9.32
455.574	9.18
456.033	11.09
456.492	9.3
456.95	10.16
457.409	10.41
457.868	10.15
458.327	10.42
458.786	9.83
459.245	10.41
459.703	9.26
460.162	10.83
460.621	10.12
461.079	9.09
461.538	10.52
461.997	11.21
462.455	11.32
462.914	11.51
463.372	9.33
463.831	8.25
464.289	11.31
464.748	11.8
465.206	11.26
465.664	10.57
466.123	10.65
466.581	10.36
467.039	11.59
467.497	10.93
467.956	11.49
468.414	12.44
468.872	10.15
469.33	10.3
469.788	11.42
470.246	13.54
470.704	11.56
471.162	12.3
471.62	11.93
472.078	12.49
472.536	10.37
472.994	13.03
473.452	11.65
473.91	11.44
474.368	12.56
474.826	15.59
475.283	14.18
475.741	12.6
476.199	13.18
476.656	13.22
477.114	14.46
477.572	13.62
478.029	14.57
478.487	13.22
478.944	13.16
479.402	15.07
479.859	15.36
480.317	16.32
480.774	14.69
481.232	14.59
481.689	15.29
482.146	15.47
482.604	14.65
483.061	16.48
483.518	15.53
483.975	16.45
484.433	17.53
484.89	14.95
485.347	16.02
485.804	16.31
486.261	17.74
486.718	17.1
487.175	16.26
487.632	17.27
488.089	15.97
488.546	19.43
489.003	17.52
489.46	16.99
489.917	18.26
490.373	16.35
490.83	17.28
491.287	17.71
491.744	16.94
492.2	16.98
492.657	17.07
493.114	18.01
493.57	17.04
494.027	19.16
494.484	20.42
494.94	16.78
495.397	18.45
495.853	20.4
496.31	18.32
496.766	19.39
497.222	18.63
497.679	19.39
498.135	18.38
498.591	16.49
499.048	19.11
499.504	18.45
499.96	18.81
500.416	19.1
500.872	19.5
501.329	17.98
501.785	19.86
502.241	18.31
502.697	18.83
503.153	19.88
503.609	21.32
504.065	17.87
504.521	17.99
504.977	21.82
505.432	18.05
505.888	18.08
506.344	21.83
506.8	20.55
507.256	18.5
507.711	19.59
508.167	21.51
508.623	20.02
509.078	20.96
509.534	19.75
509.99	20.98
510.445	20.49
510.901	20.04
511.356	22.69
511.812	19.78
512.267	20.74
512.722	20.33
513.178	21.07
513.633	21.48
514.089	20.93
514.544	22.8
514.999	21.04
515.454	21.89
515.91	20.88
516.365	20.79
516.82	20.67
517.275	22.25
517.73	21.55
518.185	21.36
518.64	20.91
519.095	22.11
519.55	21.83
520.005	21.27
520.46	20.82
520.915	22.06
521.37	22.22
521.825	23.33
522.28	22.87
522.734	21.81
523.189	24.49
523.644	21.59
524.099	23.49
524.553	23.47
525.008	23.29
525.462	23.06
525.917	24.66
526.372	23.32
526.826	23.7
527.281	24.07
527.735	23.1
528.19	25.07
528.644	24.7
529.098	23.61
529.553	22.39
530.007	24.51
530.461	23.74
530.916	23.8
531.37	24.51
531.824	25.09
532.278	24.69
532.732	26.5
533.186	24.64
533.641	25.31
534.095	27.35
534.549	26.66
535.003	27.03
535.457	26.18
535.911	26.45
536.365	27.2
536.818	25.23
537.272	28.03
537.726	26.85
538.18	27.62
538.634	27.91
539.087	29.39
539.541	27.92
539.995	28.84
540.449	26.83
540.902	28.72
541.356	29.04
541.809	28.88
542.263	28.14
542.716	29.06
543.17	30.6
543.623	29.34
544.077	31.31
544.53	29.1
544.984	31.16
545.437	31.59
545.89	31.79
546.344	30.74
546.797	32.49
547.25	29.86
547.703	30.99
548.157	31.78
548.61	33.71
549.063	32.31
549.516	33.49
549.969	33.32
550.422	29.66
550.875	32.8
551.328	34.6
551.781	33.09
552.234	33.93
552.687	33.68
553.14	35.46
553.592	33.98
554.045	34.3
554.498	33.37
554.951	34.41
555.404	34.44
555.856	34.71
556.309	35.22
556.762	35.26
557.214	35.4
557.667	36.95
558.119	35.57
558.572	35.35
559.024	36.68
559.477	36.61
559.929	35.69
560.382	36.66
560.834	37.98
561.286	37.63
561.739	36.99
562.191	36
562.643	37.2
563.095	37.83
563.548	38.15
564	38.07
564.452	36.87
564.904	37.45
565.356	37.13
565.808	37.81
566.26	38.05
566.712	37.83
567.164	38.01
567.616	37.96
568.068	39.41
568.52	38.94
568.972	37.97
569.424	36.19
569.876	38.21
570.327	37.81
570.779	38.56
571.231	38.42
571.682	38.55
572.134	39.62
572.586	37.96
573.037	37.84
573.489	37.02
573.941	39.12
574.392	36.87
574.844	38.13
575.295	38.95
575.746	37.27
576.198	38.45
576.649	39.33
577.101	38.67
577.552	39.52
578.003	38.25
578.454	37.8
578.906	38.9
579.357	38.27
579.808	40.15
580.259	39.35
580.71	40.86
581.161	40.72
581.612	41.03
582.064	41.45
582.515	40.42
582.965	41.41
583.416	41.18
583.867	40.25
584.318	41.89
584.769	40.94
585.22	41.7
585.671	40.75
586.122	41.82
586.572	42.43
587.023	41.76
587.474	40.98
587.924	42.28
588.375	42.78
588.826	41
589.276	42.53
589.727	42.37
590.177	42.97
590.628	43.23
591.078	42.51
591.529	43.32
591.979	41.77
592.429	43.72
592.88	43.18
593.33	42.89
593.78	42.56
594.231	43.51
594.681	42.64
595.131	43.66
595.581	44.33
596.031	43.13
596.481	44.71
596.932	46.22
597.382	44.91
597.832	44.59
598.282	44.02
598.732	44.99
599.182	43.78
599.632	44.14
600.081	43.64
600.531	46.4
600.981	44.67
601.431	44.98
601.881	44.03
602.33	44.65
602.78	45.52
603.23	44.53
603.679	45.58
604.129	43.94
604.579	45.53
605.028	43.3
605.478	44.34
605.927	46.06
606.377	44.61
606.826	44.3
607.276	43.62
607.725	44.53
608.175	45.84
608.624	45.58
609.073	45.31
609.522	47.32
609.972	45.33
610.421	46.07
610.87	44.45
611.319	45.65
611.768	45.82
612.218	44.52
612.667	46.87
613.116	46.45
613.565	45.73
614.014	44.23
614.463	45.33
614.912	44.32
615.361	45.57
615.81	45.94
616.258	45.66
616.707	45.81
617.156	46.9
617.605	45.04
618.054	45.84
618.502	45.67
618.951	45.5
619.4	45.33
619.848	47.59
620.297	45.78
620.745	47.25
621.194	44.59
621.642	46.27
622.091	44.78
622.539	45.49
622.988	45.66
623.436	46.41
623.885	45.94
624.333	45.17
624.781	46.96
625.23	46.48
625.678	46.21
626.126	46.07
626.574	45.59
627.022	46.46
627.471	46.86
627.919	45.38
628.367	46.51
628.815	46.85
629.263	46.62
629.711	46.49
630.159	46.74
630.607	45.24
631.055	45.1
631.503	46.55
631.95	46.66
632.398	45.21
632.846	45.62
633.294	45.64
633.742	46.3
634.189	44.79
634.637	47.61
635.085	45.97
635.532	47.02
635.98	46.24
636.427	46.73
636.875	46.58
637.323	45.76
637.77	46.16
638.217	47.36
638.665	46.7
639.112	47.5
639.56	46.74
640.007	47.2
640.454	47.11
640.902	47.26
641.349	46.9
641.796	46.75
642.243	46.63
642.69	46.69
643.138	46.36
643.585	47.27
644.032	47.62
644.479	46.65
644.926	47.68
645.373	47.45
645.82	47.48
646.267	47.5
646.714	47.19
647.161	47.47
647.607	47.27
648.054	47.63
648.501	48.93
648.948	48.46
649.395	48.43
649.841	48.27
650.288	47.24
650.735	47.22
651.181	46.5
651.628	47.44
652.075	48.24
652.521	47.29
652.968	49.16
653.414	47.38
653.861	48.42
654.307	48.01
654.753	48.52
655.2	48.8
655.646	47.51
656.092	48.02
656.539	47.6
656.985	48.84
657.431	48.1
657.877	47.85
658.324	48.3
658.77	49.81
659.216	47.41
659.662	48.54
660.108	49.01
660.554	47.8
661	48.63
661.446	50.48
661.892	49.37
662.338	49.79
662.784	49.96
663.23	47.38
663.675	49.35
664.121	48.1
664.567	49.29
665.013	49.5
665.458	49.39
665.904	48.93
666.35	47.84
666.795	49.78
667.241	49.55
667.687	49.47
668.132	49.44
668.578	48.88
669.023	49.18
669.469	49.99
669.914	49.56
670.359	49.63
670.805	49.42
671.25	49.78
671.695	48.3
672.141	49.27
672.586	49.45
673.031	49.73
673.476	49.84
673.922	49.55
674.367	49.73
674.812	49.22
675.257	50.27
675.702	49.53
676.147	49.92
676.592	49.62
677.037	48.92
677.482	49.99
677.927	50.29
678.372	50.51
678.817	50.15
679.261	49.81
679.706	50.55
680.151	51.24
680.596	49.86
681.04	50.99
681.485	50.52
681.93	50.48
682.374	51.58
682.819	51.18
683.264	51.13
683.708	50.14
684.153	50.37
684.597	51.73
685.042	49.99
685.486	50.88
685.93	49.71
686.375	51.11
686.819	50.32
687.263	49.8
687.708	50.19
688.152	50.9
688.596	51.38
689.04	50.38
689.485	50.25
689.929	50.59
690.373	50.93
690.817	51.54
691.261	50.7
691.705	50.84
692.149	50.83
692.593	50.59
693.037	51.63
693.481	51.12
693.925	52.3
694.369	50.45
694.812	51.23
695.256	50.79
695.7	51.45
696.144	50.71
696.587	50.64
697.031	51.36
697.475	50.29
697.918	52.19
698.362	51.08
698.806	51.12
699.249	52.4
699.693	49.86
700.136	50.51
700.58	50.55
701.023	51.19
701.466	51.09
701.91	51.44
702.353	51.48
702.796	51.57
703.24	50.48
703.683	52.35
704.126	51.08
704.569	50.65
705.013	51.43
705.456	51.73
705.899	51.07
706.342	50.67
706.785	50.5
707.228	52.45
707.671	51.2
708.114	51.93
708.557	51.01
709	51.73
709.443	51.71
709.886	51.44
710.328	51.67
710.771	51.6
711.214	51.45
711.657	51.48
712.099	51.01
712.542	52.23
712.985	51.79
713.427	51.49
713.87	52.38
714.313	52.17
714.755	51.28
715.198	52.37
715.64	51.01
716.083	52.83
716.525	51.48
716.967	50.85
717.41	52.16
717.852	50.53
718.295	52.7
718.737	51.71
719.179	53.27
719.621	52.5
720.063	51.38
720.506	53.26
720.948	52.41
721.39	51.9
721.832	50.77
722.274	51.52
722.716	52.5
723.158	52.29
723.6	50.97
724.042	52.08
724.484	50.65
724.926	52
725.368	51.77
725.81	51.71
726.251	51.29
726.693	52.89
727.135	52.95
727.577	52.49
728.018	51.31
728.46	51.15
728.902	52.23
729.343	51.92
729.785	52.79
730.226	51.98
730.668	51.73
731.109	52.63
731.551	52.3
731.992	53.27
732.434	53.66
732.875	53.39
733.316	52.25
733.758	52.43
734.199	54.53
734.64	52.08
735.081	51.92
735.523	53.73
735.964	52.35
736.405	52.52
736.846	52.32
737.287	52.86
737.728	52.23
738.169	52.12
738.61	53.17
739.051	52.76
739.492	53.17
739.933	53.39
740.374	51.87
740.815	51.9
741.256	53.74
741.696	53.49
742.137	51.71
742.578	53.54
743.019	52.27
743.459	53.73
743.9	52.63
744.341	53.52
744.781	53.01
745.222	53.37
745.662	51.35
746.103	52.43
746.543	52.41
746.984	53.3
747.424	53.36
747.865	53.21
748.305	53.85
748.745	52.06
749.186	53.1
749.626	52.53
750.066	52.66
750.506	52.87
750.947	51.9
751.387	54.1
751.827	51.98
752.267	53.34
752.707	53.06
753.147	53.49
753.587	54.2
754.027	52.43
754.467	53.17
754.907	53.82
755.347	54.27
755.787	53.03
756.227	52.98
756.667	52.97
757.107	53.37
757.546	53.18
757.986	52.51
758.426	52.54
758.865	53.07
759.305	54.03
759.745	53.63
760.184	53.91
760.624	54.39
761.063	53.65
761.503	53.54
761.943	53.43
762.382	53.07
762.821	53.75
763.261	53.56
763.7	52.68
764.14	53.63
764.579	53.26
765.018	53.84
765.457	53.19
765.897	54.03
766.336	53.13
766.775	54.23
767.214	53.13
767.653	54.42
768.092	52.6
768.531	53.01
768.97	53.58
769.409	53.18
769.848	54.05
770.287	54.33
770.726	54.62
771.165	53.59
771.604	54.03
772.043	53.4
772.482	53.87
772.92	54.64
773.359	54.03
773.798	53.51
774.237	53.18
774.675	54.47
775.114	53.13
775.553	54.99
775.991	54.19
776.43	55.02
776.868	53.27
777.307	54.47
777.745	53.78
778.184	54.06
778.622	53.88
779.06	54.07
779.499	54.73
779.937	54.04
780.375	53.89
780.814	54.39
781.252	54.49
781.69	53.39
782.128	54.97
782.566	54.29
783.004	53.72
783.443	53.83
783.881	55.17
784.319	53.6
784.757	54.56
785.195	54.83
785.633	55.55
786.071	54.13
786.508	54.93
786.946	53.33
787.384	53.74
787.822	54.55
788.26	54.47
788.697	53.55
789.135	54
789.573	55.02
790.011	54.71
790.448	54.11
790.886	54.21
791.323	53.96
791.761	54.7
792.198	55.19
792.636	53.96
793.073	54.12
793.511	55.53
793.948	54.8
794.386	55.3
794.823	55.85
795.26	54.9
795.698	54.87
796.135	54.41
796.572	54.61
797.009	53.56
797.446	54.87
797.884	54.18
798.321	55.11
798.758	53.88
799.195	54.66
799.632	53.97
800.069	55.04
800.506	54.47
800.943	53.97
801.38	54.79
801.817	54.22
802.254	54.43
802.69	54.49
803.127	54.98
803.564	54.6
804.001	54.77
804.438	55.01
804.874	54.52
805.311	54.76
805.748	55.23
806.184	54.58
806.621	54.16
807.057	55.04
807.494	54.23
807.93	55.29
808.367	54.49
808.803	55.27
809.24	55.17
809.676	56.09
810.112	54.43
810.549	54.86
810.985	55.39
811.421	54.46
811.857	55.26
812.294	54.79
812.73	55.13
813.166	55.28
813.602	54.96
814.038	54.78
814.474	53.94
814.91	55.17
815.346	55.44
815.782	54.85
816.218	55.53
816.654	54.5
817.09	54.65
817.526	55.78
817.962	55.28
818.398	56.14
818.833	55.25
