Data from JCR0006_Black2_Reflection_00003.txt Node
Date: Wed Jul 22 14:10:41 ACST 2020
User: Stacey Dix
Spectrometer: MAYP113282
Scans to average: 1
Trigger mode: 0
Integration Time (sec): 1.000000E-1
Electric dark correction enabled: true
Boxcar width: 0
XAxis mode: Wavelengths
Number of Pixels in Spectrum: 2068
>>>>>Begin Spectral Data<<<<<
198.791	222.22
199.266	1333.33
199.74	238.1
200.215	19.05
200.69	-21.25
201.164	35.85
201.639	-2.18
202.114	-2.36
202.588	9.63
203.063	6.56
203.537	11.68
204.012	5.53
204.486	2.06
204.961	-8.47
205.435	-10.95
205.909	1.22
206.384	1.2
206.858	-1.63
207.332	6.44
207.807	10.87
208.281	-2.41
208.755	7.34
209.229	16.01
209.703	-3.58
210.177	-5.75
210.651	6.24
211.126	-4.99
211.6	-0.53
212.074	-2.88
212.548	7.56
213.021	-4
213.495	7.74
213.969	6.74
214.443	15.65
214.917	0.91
215.391	5.17
215.864	0.84
216.338	2.66
216.812	-0.35
217.286	7.61
217.759	2.95
218.233	5.09
218.706	2.74
219.18	6.36
219.654	12.28
220.127	5.73
220.6	4.18
221.074	0.92
221.547	0.14
222.021	7.66
222.494	6.47
222.967	-0.9
223.441	7.39
223.914	7.48
224.387	9.76
224.86	8.05
225.334	8.13
225.807	4.92
226.28	4.15
226.753	8.68
227.226	10.51
227.699	4.9
228.172	11.86
228.645	6.91
229.118	8.98
229.591	8.65
230.064	9.87
230.537	10.29
231.01	9.94
231.482	9.4
231.955	10.92
232.428	7.59
232.901	8.47
233.373	8.05
233.846	8.22
234.319	7.71
234.791	8.42
235.264	9.04
235.736	8.56
236.209	9.8
236.681	9.09
237.154	9.26
237.626	9.55
238.099	8.97
238.571	7.41
239.044	7.96
239.516	7.88
239.988	8.34
240.46	8.16
240.933	8.46
241.405	8.2
241.877	7.81
242.349	8.7
242.821	8.26
243.293	8.04
243.765	6.92
244.237	8.01
244.71	8.78
245.181	6.63
245.653	7.83
246.125	7.41
246.597	6.72
247.069	7.1
247.541	6.35
248.013	6.74
248.485	7.45
248.956	7.23
249.428	8.04
249.9	7.64
250.371	8.22
250.843	7.41
251.315	7.36
251.786	6.93
252.258	7.73
252.729	8.08
253.201	6.91
253.672	7.82
254.144	7.37
254.615	7.93
255.086	7.27
255.558	7.53
256.029	6.81
256.5	7.63
256.972	7.08
257.443	7.59
257.914	7.16
258.385	6.55
258.856	7.28
259.327	6.87
259.799	6.89
260.27	6.9
260.741	8.18
261.212	7.22
261.683	6.52
262.154	6.61
262.624	7.35
263.095	7.23
263.566	7.35
264.037	7.05
264.508	7.06
264.979	7.31
265.449	7.14
265.92	5.9
266.391	6.42
266.861	7.14
267.332	6.67
267.803	6.7
268.273	6.33
268.744	6.72
269.214	7.26
269.685	6.57
270.155	6.14
270.626	6.45
271.096	6.66
271.566	6.76
272.037	5.74
272.507	6.56
272.977	7.65
273.448	5.27
273.918	5.83
274.388	7.14
274.858	5.58
275.328	7.05
275.798	7.46
276.268	6.14
276.738	6.89
277.208	6.52
277.678	7.22
278.148	6.6
278.618	6.17
279.088	5.6
279.558	5.84
280.028	6.79
280.498	6.27
280.968	6.16
281.437	7.06
281.907	6.54
282.377	5.94
282.847	6.3
283.316	6.52
283.786	5.7
284.255	6.19
284.725	6.48
285.194	6.67
285.664	6.27
286.133	6.29
286.603	5.72
287.072	5.95
287.542	6.09
288.011	7.28
288.48	6.5
288.95	5.92
289.419	6.86
289.888	5.6
290.357	5.91
290.827	6.4
291.296	5.68
291.765	6.85
292.234	6.6
292.703	6.19
293.172	6.4
293.641	5.82
294.11	6.02
294.579	7.07
295.048	6.3
295.517	5.77
295.986	5.64
296.455	6.13
296.923	5.71
297.392	6.24
297.861	6.45
298.33	5.97
298.798	7.41
299.267	6.03
299.736	5.79
300.204	4.79
300.673	6.76
301.141	6.26
301.61	6.04
302.079	5.96
302.547	6.58
303.015	4.91
303.484	5.44
303.952	5.59
304.421	5.81
304.889	5.41
305.357	5.98
305.825	5.18
306.294	5.76
306.762	5.19
307.23	5.4
307.698	5.72
308.166	5.72
308.634	5.44
309.103	5.83
309.571	5.09
310.039	5.78
310.507	5.44
310.975	6.54
311.442	6.17
311.91	5.44
312.378	6.25
312.846	5.46
313.314	5.55
313.782	5.29
314.249	5.06
314.717	6.61
315.185	5.59
315.652	5.75
316.12	5.77
316.588	5.31
317.055	5.51
317.523	5.61
317.99	5.22
318.458	5.62
318.925	4.84
319.393	5.24
319.86	6.39
320.328	6.25
320.795	5.36
321.262	5.43
321.73	4.46
322.197	5.23
322.664	4.58
323.131	4.92
323.598	5.13
324.066	4.67
324.533	5.51
325	4.74
325.467	4.47
325.934	5.48
326.401	5.07
326.868	5.37
327.335	6.08
327.802	4.79
328.269	5.94
328.735	4.35
329.202	5.27
329.669	4.97
330.136	4.6
330.603	5.06
331.069	5.64
331.536	4.77
332.003	4.66
332.469	4.45
332.936	4.68
333.402	5.17
333.869	5.13
334.336	5.39
334.802	5.42
335.268	4.96
335.735	4.81
336.201	5.63
336.668	5.03
337.134	5.83
337.6	4.63
338.067	5.3
338.533	4.45
338.999	4.58
339.465	4.77
339.931	4.94
340.398	5.11
340.864	4.19
341.33	5.24
341.796	4.9
342.262	4.81
342.728	4.63
343.194	4.14
343.66	5.31
344.126	4.56
344.592	4.38
345.057	3.91
345.523	4.75
345.989	4.31
346.455	4.72
346.921	4.8
347.386	3.79
347.852	4.93
348.318	4.72
348.783	4.09
349.249	3.73
349.714	5.56
350.18	4.21
350.645	4.05
351.111	3.8
351.576	4.03
352.042	4.37
352.507	4.61
352.973	4.71
353.438	4.39
353.903	4.47
354.369	5
354.834	5.03
355.299	4.61
355.764	5.33
356.229	3.99
356.695	4.34
357.16	4.53
357.625	4.67
358.09	4.46
358.555	4.45
359.02	4.59
359.485	4.46
359.95	4.24
360.415	3.89
360.879	3.84
361.344	3.47
361.809	4.2
362.274	4.76
362.739	4.5
363.203	4.2
363.668	4.89
364.133	3.61
364.597	4.77
365.062	3.69
365.527	4.81
365.991	3.92
366.456	4.03
366.92	4.14
367.385	4.51
367.849	4.52
368.314	3.06
368.778	4.13
369.242	3.8
369.707	3.4
370.171	3.42
370.635	3.84
371.1	4.42
371.564	4.9
372.028	3.75
372.492	4.41
372.956	3.6
373.42	4.9
373.884	3.25
374.348	3.85
374.812	3.84
375.276	4.86
375.74	3.52
376.204	3.04
376.668	4.26
377.132	4.5
377.596	3.16
378.06	3.96
378.524	4.28
378.987	3.58
379.451	3.97
379.915	4.1
380.378	4.16
380.842	4.82
381.306	4.34
381.769	5.26
382.233	3.73
382.696	4.27
383.16	4.58
383.623	2.69
384.087	4.36
384.55	4.04
385.014	3.87
385.477	3.98
385.94	4.29
386.404	4.44
386.867	4.37
387.33	3.39
387.793	4.09
388.256	3.43
388.72	4.03
389.183	4.1
389.646	3.45
390.109	4.02
390.572	3.83
391.035	4.11
391.498	3.82
391.961	3.86
392.424	4.81
392.887	3.54
393.35	4.06
393.812	3.58
394.275	3.65
394.738	4.01
395.201	3.12
395.664	3.88
396.126	3.39
396.589	4.96
397.052	4.22
397.514	4.04
397.977	3.92
398.439	3.9
398.902	3.99
399.364	3.9
399.827	4
400.289	4.08
400.752	3.13
401.214	3.8
401.676	3.9
402.139	4.05
402.601	3.72
403.063	3.8
403.525	3.24
403.988	4.12
404.45	4.25
404.912	4.56
405.374	3.41
405.836	3.01
406.298	3.84
406.76	4.31
407.222	4.34
407.684	3.48
408.146	4.24
408.608	4
409.07	3.89
409.532	4.51
409.994	3.14
410.456	3.82
410.917	4.23
411.379	3.42
411.841	4.1
412.303	3.29
412.764	3.69
413.226	3.68
413.687	3.05
414.149	4.59
414.611	3.62
415.072	3.57
415.534	3.68
415.995	4.14
416.457	3.31
416.918	3.06
417.379	4.1
417.841	3.74
418.302	3.08
418.763	3.52
419.225	4.99
419.686	4.42
420.147	3.64
420.608	4.12
421.069	4.04
421.53	3.74
421.991	2.93
422.453	3.26
422.914	4.08
423.375	3.58
423.836	4.01
424.297	4.65
424.757	3.2
425.218	3.3
425.679	3.72
426.14	4.62
426.601	3.78
427.062	3.15
427.522	3.58
427.983	4.21
428.444	3.28
428.904	3.76
429.365	3.08
429.826	2.81
430.286	3.42
430.747	3.52
431.207	3.71
431.668	2.63
432.128	3.12
432.589	3.74
433.049	5.33
433.509	3.63
433.97	2.6
434.43	4.4
434.89	4.76
435.351	3.64
435.811	2.93
436.271	3.58
436.731	3.29
437.191	5.12
437.651	3.74
438.112	4.29
438.572	3.17
439.032	5.09
439.492	2.47
439.952	3.6
440.412	3.7
440.871	2.89
441.331	4.87
441.791	4.08
442.251	3.17
442.711	4.24
443.171	3.48
443.63	3.51
444.09	4.44
444.55	4.1
445.009	3
445.469	2.25
445.929	3.81
446.388	4.11
446.848	2.46
447.307	3.35
447.767	4.07
448.226	3.31
448.686	3.3
449.145	3.59
449.604	3.3
450.064	3.68
450.523	4.43
450.982	4.12
451.442	3.44
451.901	3.3
452.36	3.21
452.819	4.8
453.278	2.47
453.737	3.43
454.197	2.82
454.656	3.51
455.115	2.13
455.574	4.33
456.033	3.44
456.492	4.5
456.95	3.55
457.409	2.96
457.868	4.11
458.327	3.4
458.786	3.57
459.245	3.42
459.703	2.52
460.162	3.55
460.621	3.36
461.079	5.24
461.538	2.47
461.997	3.07
462.455	3.82
462.914	2.96
463.372	3.64
463.831	3.35
464.289	2.58
464.748	4.28
465.206	3.66
465.664	4.69
466.123	3.47
466.581	4.15
467.039	3.41
467.497	1.82
467.956	3.16
468.414	3.33
468.872	3.94
469.33	2.52
469.788	3.83
470.246	3.15
470.704	1.98
471.162	4.39
471.62	4.22
472.078	4.01
472.536	3.41
472.994	3.17
473.452	3.36
473.91	1.39
474.368	2.64
474.826	3.78
475.283	5.01
475.741	4.31
476.199	4.73
476.656	3.42
477.114	3.35
477.572	2.88
478.029	2.97
478.487	3.91
478.944	2.46
479.402	4.46
479.859	4.06
480.317	1.36
480.774	3.73
481.232	2.18
481.689	4.03
482.146	3.86
482.604	2.42
483.061	5.26
483.518	3.82
483.975	3.02
484.433	5.55
484.89	3.45
485.347	5.06
485.804	4.03
486.261	5
486.718	2.81
487.175	4.11
487.632	2.33
488.089	3.18
488.546	3.8
489.003	3.22
489.46	4.22
489.917	2.83
490.373	1.49
490.83	3.24
491.287	4.43
491.744	3.44
492.2	3.24
492.657	2.09
493.114	2.47
493.57	2.56
494.027	3.09
494.484	3.61
494.94	2.96
495.397	1.47
495.853	2.97
496.31	3.91
496.766	3.36
497.222	4.76
497.679	3.07
498.135	2.95
498.591	3.51
499.048	2.68
499.504	3.61
499.96	3.17
500.416	3.45
500.872	3.44
501.329	2.4
501.785	1.77
502.241	3.69
502.697	2.11
503.153	3.5
503.609	4
504.065	3.39
504.521	2.29
504.977	2.99
505.432	2.88
505.888	2.73
506.344	3.77
506.8	4.14
507.256	2.56
507.711	4.25
508.167	1.86
508.623	3.97
509.078	2.68
509.534	3.35
509.99	3.46
510.445	3.25
510.901	3.89
511.356	2.78
511.812	4.69
512.267	2.78
512.722	3.82
513.178	3.42
513.633	3.2
514.089	3.58
514.544	3.5
514.999	2.9
515.454	3.05
515.91	3.69
516.365	2.91
516.82	3.59
517.275	3.63
517.73	2.66
518.185	3.78
518.64	3.71
519.095	3.8
519.55	2.84
520.005	3.28
520.46	3.5
520.915	4.03
521.37	2.91
521.825	4.61
522.28	2.86
522.734	3.35
523.189	4.43
523.644	3.53
524.099	3.78
524.553	4.02
525.008	4.06
525.462	2.99
525.917	4.05
526.372	3.33
526.826	3.81
527.281	4.11
527.735	3.68
528.19	3.93
528.644	3.2
529.098	2.92
529.553	3.95
530.007	4.18
530.461	3.39
530.916	4.05
531.37	4.42
531.824	2.87
532.278	3.62
532.732	5.08
533.186	3.13
533.641	3.13
534.095	4.12
534.549	3.62
535.003	3.83
535.457	2.69
535.911	3.57
536.365	3.89
536.818	2.8
537.272	4.02
537.726	2.41
538.18	3.82
538.634	3.44
539.087	3.07
539.541	3.11
539.995	2.92
540.449	4.1
540.902	3.4
541.356	4.55
541.809	3.36
542.263	4.17
542.716	3.67
543.17	2.75
543.623	4.24
544.077	4.12
544.53	4.72
544.984	3.96
545.437	4.16
545.89	2.9
546.344	3.82
546.797	3.64
547.25	3.16
547.703	3.68
548.157	4.77
548.61	3.38
549.063	2.43
549.516	4.11
549.969	3.25
550.422	2.31
550.875	3.1
551.328	3.32
551.781	2.26
552.234	3.34
552.687	3.03
553.14	3.21
553.592	3.4
554.045	3.32
554.498	3.68
554.951	4.01
555.404	3.6
555.856	4.48
556.309	2.97
556.762	3.66
557.214	3.41
557.667	3.6
558.119	3.48
558.572	3.4
559.024	3.48
559.477	3.86
559.929	2.99
560.382	3.32
560.834	3.23
561.286	3.98
561.739	3.15
562.191	3.38
562.643	3.73
563.095	4.34
563.548	4.06
564	3.66
564.452	3.46
564.904	4.51
565.356	3.06
565.808	3.25
566.26	3.14
566.712	3.51
567.164	3.36
567.616	4.18
568.068	3.11
568.52	3.83
568.972	2.92
569.424	3.82
569.876	4.43
570.327	3.03
570.779	4.4
571.231	3.23
571.682	3.67
572.134	3.73
572.586	3.8
573.037	3.47
573.489	3.11
573.941	3.01
574.392	3.76
574.844	4.54
575.295	3.87
575.746	3.53
576.198	3.61
576.649	3.88
577.101	3.57
577.552	2.99
578.003	2.92
578.454	3.42
578.906	3.84
579.357	3.08
579.808	4.13
580.259	3.44
580.71	3.44
581.161	3.46
581.612	3.8
582.064	2.93
582.515	3.41
582.965	3.78
583.416	3.24
583.867	4.64
584.318	3.29
584.769	4.55
585.22	3.81
585.671	3.08
586.122	3.33
586.572	4.35
587.023	3.21
587.474	4.29
587.924	3.13
588.375	3.84
588.826	3.71
589.276	3.44
589.727	2.91
590.177	3.05
590.628	3.24
591.078	3.26
591.529	3.3
591.979	3.56
592.429	3.51
592.88	3.34
593.33	3.72
593.78	3.37
594.231	4.1
594.681	3.95
595.131	3.22
595.581	3.52
596.031	2.88
596.481	3.66
596.932	3.94
597.382	4.06
597.832	3.32
598.282	4.26
598.732	3.29
599.182	3.98
599.632	4.22
600.081	4.16
600.531	3.56
600.981	3.75
601.431	3.92
601.881	4.32
602.33	3.13
602.78	3.5
603.23	3.68
603.679	3.12
604.129	3.43
604.579	3.54
605.028	3.56
605.478	3.86
605.927	3.3
606.377	3.39
606.826	4.16
607.276	4.13
607.725	3.42
608.175	3.8
608.624	3.59
609.073	3.54
609.522	3.56
609.972	3.79
610.421	3.3
610.87	3.04
611.319	3.27
611.768	4.19
612.218	3.45
612.667	3.48
613.116	3.69
613.565	3.59
614.014	3.05
614.463	3.79
614.912	3.22
615.361	4.17
615.81	3.91
616.258	3.61
616.707	3.88
617.156	2.88
617.605	3.46
618.054	3.48
618.502	3.76
618.951	3.55
619.4	3.9
619.848	4.18
620.297	3.27
620.745	4.01
621.194	3.31
621.642	3.25
622.091	3.73
622.539	4.02
622.988	3.8
623.436	4.11
623.885	3.2
624.333	4.29
624.781	3.55
625.23	4.06
625.678	3.77
626.126	4.03
626.574	3.67
627.022	4.05
627.471	3.86
627.919	3.88
628.367	3.37
628.815	4.13
629.263	3.73
629.711	3.73
630.159	4.05
630.607	3.62
631.055	4.08
631.503	3.84
631.95	3.45
632.398	3.58
632.846	3.15
633.294	4.34
633.742	3.61
634.189	3.63
634.637	3.28
635.085	3.73
635.532	3.28
635.98	3.66
636.427	3.6
636.875	3.93
637.323	4.1
637.77	3.61
638.217	3.69
638.665	3.89
639.112	3.06
639.56	4.01
640.007	3.53
640.454	4.2
640.902	3.49
641.349	3.91
641.796	3.87
642.243	4.08
642.69	3.96
643.138	3.73
643.585	3.9
644.032	3.95
644.479	3.69
644.926	3.83
645.373	3.85
645.82	3.52
646.267	3.34
646.714	3.67
647.161	3.89
647.607	4.22
648.054	3.42
648.501	4.13
648.948	3.83
649.395	3.91
649.841	3.67
650.288	3.98
650.735	3.69
651.181	4.16
651.628	3.98
652.075	3.85
652.521	3.93
652.968	3.55
653.414	3.97
653.861	3.4
654.307	3.61
654.753	3.79
655.2	4.21
655.646	3.62
656.092	3.72
656.539	3.9
656.985	3.87
657.431	3.76
657.877	3.79
658.324	3.86
658.77	3.71
659.216	3.6
659.662	4.01
660.108	3.59
660.554	3.89
661	3.98
661.446	3.76
661.892	3.7
662.338	3.81
662.784	3.76
663.23	3.72
663.675	3.57
664.121	3.8
664.567	4.15
665.013	4.12
665.458	3.86
665.904	4.24
666.35	3.64
666.795	3.2
667.241	3.68
667.687	3.9
668.132	4.08
668.578	3.86
669.023	3.5
669.469	3.54
669.914	3.93
670.359	3.74
670.805	3.52
671.25	3.65
671.695	3.62
672.141	3.53
672.586	4.04
673.031	3.63
673.476	3.99
673.922	4.35
674.367	3.86
674.812	3.52
675.257	3.41
675.702	4.28
676.147	3.86
676.592	3.67
677.037	4.05
677.482	3.69
677.927	3.6
678.372	4.08
678.817	3.86
679.261	3.98
679.706	4.03
680.151	3.92
680.596	3.91
681.04	3.69
681.485	3.58
681.93	3.91
682.374	3.39
682.819	4.14
683.264	3.89
683.708	3.97
684.153	3.92
684.597	3.53
685.042	4.02
685.486	3.74
685.93	4.29
686.375	3.6
686.819	3.54
687.263	3.69
687.708	3.73
688.152	3.76
688.596	4.04
689.04	4.22
689.485	3.74
689.929	3.92
690.373	3.9
690.817	4.03
691.261	3.86
691.705	3.67
692.149	3.53
692.593	3.86
693.037	4.11
693.481	4.05
693.925	3.76
694.369	3.86
694.812	4.35
695.256	4.13
695.7	3.88
696.144	3.7
696.587	3.82
697.031	4.07
697.475	3.8
697.918	4.1
698.362	3.9
698.806	3.93
699.249	3.9
699.693	3.69
700.136	3.85
700.58	3.87
701.023	3.91
701.466	3.93
701.91	3.81
702.353	3.63
702.796	3.86
703.24	3.99
703.683	3.76
704.126	3.77
704.569	3.88
705.013	3.91
705.456	3.64
705.899	3.66
706.342	3.82
706.785	3.91
707.228	4.2
707.671	3.8
708.114	3.95
708.557	3.65
709	3.9
709.443	4.04
709.886	4.12
710.328	3.64
710.771	3.77
711.214	3.89
711.657	4.08
712.099	4.04
712.542	4.01
712.985	4.29
713.427	3.72
713.87	4.02
714.313	3.52
714.755	3.96
715.198	3.62
715.64	3.83
716.083	4.37
716.525	4.09
716.967	4.07
717.41	3.95
717.852	3.64
718.295	4.14
718.737	4.26
719.179	3.95
719.621	3.75
720.063	3.84
720.506	4.07
720.948	3.82
721.39	3.83
721.832	4.28
722.274	4.13
722.716	4.46
723.158	3.5
723.6	4.17
724.042	4.13
724.484	4.11
724.926	4.09
725.368	3.89
725.81	4.13
726.251	3.67
726.693	3.59
727.135	4.28
727.577	4.15
728.018	4.12
728.46	3.56
728.902	4.29
729.343	4.06
729.785	4.1
730.226	4.14
730.668	3.86
731.109	3.94
731.551	4.49
731.992	4.29
732.434	4.2
732.875	4.16
733.316	3.65
733.758	3.7
734.199	4.13
734.64	3.88
735.081	4.18
735.523	3.83
735.964	3.8
736.405	3.79
736.846	4.05
737.287	3.89
737.728	4.05
738.169	3.48
738.61	4.06
739.051	4.09
739.492	4.22
739.933	3.9
740.374	4.16
740.815	4.16
741.256	3.87
741.696	3.85
742.137	3.81
742.578	3.83
743.019	4.16
743.459	3.92
743.9	3.91
744.341	4
744.781	4.08
745.222	4.19
745.662	3.89
746.103	3.89
746.543	3.78
746.984	3.78
747.424	3.86
747.865	4.15
748.305	4.05
748.745	3.96
749.186	3.94
749.626	4.12
750.066	3.9
750.506	3.81
750.947	4.05
751.387	3.9
751.827	4.27
752.267	4.1
752.707	4.52
753.147	3.88
753.587	4.31
754.027	4.41
754.467	4.02
754.907	3.94
755.347	4.46
755.787	4
756.227	3.83
756.667	4.31
757.107	4.1
757.546	4.11
757.986	4.53
758.426	4.42
758.865	3.81
759.305	4.22
759.745	4.03
760.184	4.18
760.624	4.14
761.063	4.2
761.503	4.01
761.943	4.18
762.382	4.21
762.821	4.1
763.261	4.11
763.7	4.38
764.14	4.16
764.579	4.16
765.018	3.92
765.457	4.21
765.897	3.75
766.336	4.29
766.775	4.43
767.214	4.22
767.653	4.21
768.092	4.32
768.531	4.11
768.97	4.31
769.409	3.88
769.848	4.01
770.287	3.93
770.726	4.11
771.165	4.26
771.604	4.01
772.043	3.99
772.482	4.01
772.92	4.59
773.359	4.12
773.798	4.53
774.237	4.09
774.675	4.3
775.114	4.03
775.553	4.35
775.991	4.14
776.43	4.02
776.868	3.85
777.307	4.05
777.745	4.17
778.184	4.35
778.622	4.42
779.06	4.42
779.499	4.45
779.937	4.22
780.375	4.25
780.814	4.27
781.252	4.23
781.69	4.17
782.128	4.4
782.566	4.07
783.004	4.31
783.443	4.09
783.881	4.22
784.319	4.4
784.757	4.21
785.195	4.31
785.633	4.5
786.071	4.26
786.508	4.07
786.946	4
787.384	4.04
787.822	4.37
788.26	4.2
788.697	4.53
789.135	4.03
789.573	4.52
790.011	4.51
790.448	4.3
790.886	4.1
791.323	4.55
791.761	4
792.198	4.25
792.636	4.49
793.073	4.57
793.511	4.25
793.948	4.34
794.386	4.18
794.823	3.92
795.26	4.47
795.698	4.11
796.135	4.19
796.572	4.24
797.009	4.43
797.446	4.45
797.884	4.47
798.321	4.33
798.758	4.23
799.195	4.28
799.632	4.19
800.069	4.2
800.506	4.4
800.943	4.15
801.38	4.35
801.817	4.29
802.254	4.57
802.69	4.4
803.127	4.15
803.564	4.19
804.001	4.59
804.438	4.54
804.874	4.41
805.311	4.42
805.748	4.23
806.184	4.4
806.621	4.26
807.057	4.55
807.494	4.31
807.93	4.58
808.367	4.31
808.803	4.37
809.24	4.69
809.676	4.82
810.112	4.2
810.549	4.59
810.985	4.34
811.421	4.6
811.857	4.32
812.294	4.56
812.73	4.33
813.166	4.28
813.602	4.5
814.038	4.46
814.474	4.66
814.91	4.45
815.346	4.57
815.782	4.43
816.218	4.54
816.654	4.64
817.09	4.39
817.526	4.36
817.962	4.41
818.398	4.61
818.833	4.6
819.269	4.45
819.705	4.55
820.141	4.52
820.576	4.83
821.012	4.81
821.447	4.29
821.883	4.76
822.319	4.62
822.754	4.54
823.19	4.31
823.625	4.66
824.061	4.51
824.496	4.49
824.931	4.54
825.367	4.76
825.802	4.6
826.237	4.64
826.673	4.48
827.108	4.46
827.543	4.34
827.978	4.62
828.413	4.54
828.849	4.44
829.284	4.56
829.719	4.61
830.154	4.73
830.589	4.95
831.024	4.47
831.459	4.46
831.894	4.83
832.329	4.53
832.763	4.82
833.198	4.68
833.633	4.61
834.068	4.92
834.503	4.7
834.937	4.66
835.372	4.52
835.807	4.8
836.241	4.52
836.676	4.74
837.111	4.74
837.545	4.9
837.98	4.84
838.414	4.86
838.849	4.66
839.283	4.63
839.717	4.66
840.152	4.72
840.586	4.7
841.021	4.71
841.455	4.64
841.889	4.65
842.323	4.87
842.758	4.61
843.192	4.86
843.626	4.79
844.06	4.55
844.494	4.59
844.928	5.09
845.362	4.84
845.796	4.54
846.23	5
846.664	4.74
