Data from JCR0012_WhiteVentral_Reflection_00003.txt Node
Date: Fri Jul 31 16:10:21 ACST 2020
User: Stacey Dix
Spectrometer: MAYP113282
Scans to average: 1
Trigger mode: 0
Integration Time (sec): 1.000000E-1
Electric dark correction enabled: true
Boxcar width: 0
XAxis mode: Wavelengths
Number of Pixels in Spectrum: 2068
>>>>>Begin Spectral Data<<<<<
198.791	850
199.266	100
199.74	100
200.215	-950
200.69	14.6
201.164	29.94
201.639	-42.11
202.114	-3.17
202.588	-15.38
203.063	6.7
203.537	-12.32
204.012	19.62
204.486	6.51
204.961	-6.05
205.435	-0.41
205.909	14.96
206.384	-43.23
206.858	19.67
207.332	27.42
207.807	22.43
208.281	2.29
208.755	6.69
209.229	8.19
209.703	-3.89
210.177	24.23
210.651	22.18
211.126	-12.76
211.6	5.32
212.074	-12.2
212.548	12.03
213.021	-14.78
213.495	1.69
213.969	6.41
214.443	-14.55
214.917	9.47
215.391	24.69
215.864	7.22
216.338	21.3
216.812	-24.29
217.286	11.87
217.759	12.99
218.233	2.57
218.706	2.15
219.18	8.2
219.654	4.81
220.127	10.68
220.6	13.4
221.074	7.73
221.547	15.01
222.021	-3.55
222.494	-0.14
222.967	8.34
223.441	5.28
223.914	3.12
224.387	1.02
224.86	5.33
225.334	8.47
225.807	4.63
226.28	-1.78
226.753	3.38
227.226	2.51
227.699	6.54
228.172	1.96
228.645	6.02
229.118	7.13
229.591	2.2
230.064	4.35
230.537	5.06
231.01	6.2
231.482	4.85
231.955	4.85
232.428	0.44
232.901	4.53
233.373	5.11
233.846	4.74
234.319	6.61
234.791	2.77
235.264	2.68
235.736	4.73
236.209	2.95
236.681	5.11
237.154	3.63
237.626	5.02
238.099	1.82
238.571	4.48
239.044	3.49
239.516	4.44
239.988	3.55
240.46	4.23
240.933	3.24
241.405	4.59
241.877	2.6
242.349	3.81
242.821	2.4
243.293	3.51
243.765	2.77
244.237	3.78
244.71	3.24
245.181	4.45
245.653	2.36
246.125	4.76
246.597	3.08
247.069	3.82
247.541	3.56
248.013	3.71
248.485	3.99
248.956	2.59
249.428	3.67
249.9	2.45
250.371	4.71
250.843	3.37
251.315	2.79
251.786	3.15
252.258	3.9
252.729	3.5
253.201	3.54
253.672	3.49
254.144	3.56
254.615	2.64
255.086	2.2
255.558	3.17
256.029	3.13
256.5	3.67
256.972	3.13
257.443	2.5
257.914	1.86
258.385	2.43
258.856	2.62
259.327	2.74
259.799	3.15
260.27	3.32
260.741	3.47
261.212	3.51
261.683	3.18
262.154	2.58
262.624	2.72
263.095	2.96
263.566	3.2
264.037	2.28
264.508	3.23
264.979	2.92
265.449	3.18
265.92	2.42
266.391	3.05
266.861	2.45
267.332	3.11
267.803	3.05
268.273	3.45
268.744	3.15
269.214	3.66
269.685	2.36
270.155	2.53
270.626	2.7
271.096	2.63
271.566	3.23
272.037	2.76
272.507	2.45
272.977	3.85
273.448	2.75
273.918	2.8
274.388	3
274.858	2.61
275.328	1.89
275.798	3.9
276.268	2.44
276.738	2.28
277.208	1.34
277.678	3.85
278.148	4.24
278.618	3.13
279.088	3.5
279.558	2.79
280.028	2.42
280.498	1.52
280.968	2.92
281.437	2.84
281.907	3.66
282.377	2.33
282.847	3.32
283.316	2.22
283.786	3.85
284.255	3.07
284.725	2.5
285.194	2.78
285.664	2.21
286.133	2.01
286.603	2.02
287.072	2.51
287.542	2.65
288.011	2.94
288.48	2.3
288.95	2.88
289.419	2.93
289.888	2.62
290.357	2.15
290.827	2.5
291.296	2.71
291.765	2.89
292.234	2.16
292.703	3.39
293.172	3.14
293.641	2.05
294.11	2.83
294.579	3.5
295.048	1.92
295.517	2.99
295.986	3.19
296.455	2.67
296.923	3.09
297.392	2.26
297.861	2.77
298.33	2.04
298.798	3.15
299.267	2.4
299.736	2.34
300.204	2.49
300.673	2.9
301.141	2.12
301.61	3.38
302.079	2.58
302.547	2.67
303.015	1.98
303.484	2.46
303.952	2.76
304.421	2.38
304.889	2.44
305.357	3.45
305.825	1.68
306.294	3.2
306.762	3.82
307.23	2.29
307.698	1.32
308.166	2.77
308.634	2.46
309.103	3.07
309.571	2.57
310.039	2.29
310.507	3.58
310.975	2.53
311.442	3.07
311.91	2.68
312.378	3.16
312.846	2.18
313.314	2.96
313.782	3.38
314.249	2.73
314.717	3.31
315.185	2.89
315.652	3.25
316.12	2.3
316.588	3.63
317.055	3.52
317.523	3.3
317.99	2.18
318.458	3.23
318.925	3.41
319.393	1.97
319.86	2.77
320.328	3.04
320.795	3.43
321.262	2.97
321.73	3.34
322.197	3.33
322.664	4.1
323.131	4.11
323.598	3.63
324.066	4.82
324.533	3.7
325	6.17
325.467	5.79
325.934	7.19
326.401	5.51
326.868	7.84
327.335	7.49
327.802	7.43
328.269	7.05
328.735	8.12
329.202	8.79
329.669	9.19
330.136	9.27
330.603	10.6
331.069	10.68
331.536	11.85
332.003	11.79
332.469	11.15
332.936	11.58
333.402	10.75
333.869	11.55
334.336	12.62
334.802	12.22
335.268	10.24
335.735	13.25
336.201	12.7
336.668	11.89
337.134	11.49
337.6	12.36
338.067	11.92
338.533	12.12
338.999	12.3
339.465	11.69
339.931	11.79
340.398	13
340.864	12.35
341.33	12.4
341.796	11.37
342.262	11.76
342.728	13.3
343.194	12.94
343.66	11.98
344.126	11.86
344.592	12.21
345.057	11.37
345.523	12.3
345.989	11.82
346.455	11.42
346.921	12.2
347.386	10.92
347.852	11.64
348.318	11.92
348.783	11.9
349.249	12.33
349.714	12.93
350.18	12.45
350.645	12.12
351.111	12.71
351.576	12.25
352.042	12.41
352.507	12.24
352.973	12.22
353.438	12.36
353.903	13.19
354.369	10.29
354.834	12.47
355.299	11.6
355.764	12.45
356.229	12.13
356.695	12.39
357.16	12.04
357.625	10.89
358.09	13.09
358.555	11.76
359.02	12.62
359.485	12.74
359.95	13.3
360.415	13.57
360.879	12.83
361.344	12.81
361.809	12.05
362.274	13.29
362.739	12.57
363.203	13.34
363.668	12.17
364.133	13.98
364.597	13.23
365.062	11.77
365.527	13.69
365.991	11.64
366.456	13.17
366.92	12.83
367.385	14.31
367.849	13.31
368.314	13.59
368.778	12.42
369.242	12.66
369.707	12.97
370.171	14.49
370.635	13.58
371.1	13.24
371.564	13.05
372.028	13.75
372.492	14.53
372.956	13.49
373.42	14.97
373.884	14.03
374.348	13.52
374.812	12.82
375.276	15.24
375.74	14.94
376.204	14.18
376.668	13.26
377.132	14.99
377.596	14.34
378.06	13.47
378.524	14.84
378.987	13.92
379.451	13.21
379.915	14.7
380.378	14.92
380.842	15.62
381.306	14.5
381.769	17.04
382.233	13.52
382.696	14.39
383.16	13.88
383.623	14.42
384.087	14.43
384.55	12.61
385.014	15.74
385.477	13.76
385.94	13.5
386.404	15.65
386.867	14.35
387.33	15.63
387.793	15.49
388.256	15.09
388.72	15.13
389.183	15.91
389.646	16.09
390.109	15.15
390.572	14
391.035	14.04
391.498	15.6
391.961	14.63
392.424	13.4
392.887	14.8
393.35	15.25
393.812	16.2
394.275	14.48
394.738	15.58
395.201	14.8
395.664	15.47
396.126	15.8
396.589	14.25
397.052	15.19
397.514	15.53
397.977	15.13
398.439	15.28
398.902	14.33
399.364	15.34
399.827	14.87
400.289	14.79
400.752	15.69
401.214	14.12
401.676	15.55
402.139	14.77
402.601	15.37
403.063	15.17
403.525	14.89
403.988	12.34
404.45	13.6
404.912	14.66
405.374	14.45
405.836	13.93
406.298	13.87
406.76	14.15
407.222	16.48
407.684	14.58
408.146	14.06
408.608	13.49
409.07	14.96
409.532	14.25
409.994	14.79
410.456	13.77
410.917	15.08
411.379	14.65
411.841	15.95
412.303	13.99
412.764	14.82
413.226	15.65
413.687	14.1
414.149	14.21
414.611	14.9
415.072	14.61
415.534	14.75
415.995	14.83
416.457	15.29
416.918	15.13
417.379	14.18
417.841	14.71
418.302	15.78
418.763	14.61
419.225	15.15
419.686	15.89
420.147	14.2
420.608	15.93
421.069	15.37
421.53	15.92
421.991	16.45
422.453	14.39
422.914	16.62
423.375	16.75
423.836	14.39
424.297	14.97
424.757	14.71
425.218	17.03
425.679	13.67
426.14	15.8
426.601	15.28
427.062	15.35
427.522	15.74
427.983	16.18
428.444	16.95
428.904	15.48
429.365	17.81
429.826	13.26
430.286	16.6
430.747	17.5
431.207	17.37
431.668	17.03
432.128	16.34
432.589	15.42
433.049	17.26
433.509	18.66
433.97	13.73
434.43	17.21
434.89	14.74
435.351	16.89
435.811	17.92
436.271	19.43
436.731	16.52
437.191	16.93
437.651	16.16
438.112	17.91
438.572	16.17
439.032	18.57
439.492	18.35
439.952	18.61
440.412	17.37
440.871	19.77
441.331	16.7
441.791	16.36
442.251	18.27
442.711	17.25
443.171	19.47
443.63	18.8
444.09	18.27
444.55	16.1
445.009	19.17
445.469	17.53
445.929	18.86
446.388	18.5
446.848	19.69
447.307	18.44
447.767	20.74
448.226	18.06
448.686	19.07
449.145	17.25
449.604	19.46
450.064	18.83
450.523	17.49
450.982	19.21
451.442	19.26
451.901	18.79
452.36	17.62
452.819	18.96
453.278	20.11
453.737	17.59
454.197	18.75
454.656	20.92
455.115	17.22
455.574	19.19
456.033	17.67
456.492	16.46
456.95	20.19
457.409	18.69
457.868	16.57
458.327	20.86
458.786	20.61
459.245	21.52
459.703	19.3
460.162	21.07
460.621	18.33
461.079	17.54
461.538	17.34
461.997	17.46
462.455	19.02
462.914	20.85
463.372	17.38
463.831	22.78
464.289	20.25
464.748	19.51
465.206	20.75
465.664	19.39
466.123	17.53
466.581	19.96
467.039	19.28
467.497	16.02
467.956	18.69
468.414	19.87
468.872	19.68
469.33	18.57
469.788	21.5
470.246	19.58
470.704	19.72
471.162	18.7
471.62	19.01
472.078	21.11
472.536	19.09
472.994	17.25
473.452	18.98
473.91	21.42
474.368	18.57
474.826	20.87
475.283	20.43
475.741	21
476.199	19.09
476.656	21.94
477.114	18.49
477.572	18.34
478.029	20.76
478.487	18.38
478.944	18.79
479.402	18.3
479.859	20.16
480.317	19.56
480.774	19.66
481.232	18.77
481.689	20.31
482.146	18.38
482.604	19.52
483.061	19.88
483.518	19.51
483.975	16.82
484.433	19.34
484.89	19.2
485.347	17.92
485.804	18.8
486.261	19.81
486.718	17.09
487.175	17.47
487.632	19.62
488.089	21.95
488.546	22.2
489.003	19.16
489.46	18.44
489.917	20.07
490.373	19.01
490.83	19.75
491.287	20.12
491.744	20.22
492.2	19.41
492.657	20.44
493.114	18.35
493.57	18.66
494.027	19.26
494.484	22.71
494.94	22.41
495.397	21.31
495.853	20.34
496.31	21.26
496.766	20.26
497.222	16.96
497.679	18.38
498.135	19.79
498.591	17.93
499.048	20.57
499.504	20.52
499.96	19.46
500.416	20.05
500.872	20.88
501.329	18.57
501.785	20.67
502.241	19.91
502.697	21.15
503.153	20.35
503.609	19.98
504.065	18.85
504.521	21.79
504.977	20.38
505.432	18.36
505.888	23.59
506.344	19.25
506.8	20.81
507.256	19.1
507.711	18.98
508.167	18.62
508.623	19.82
509.078	20.1
509.534	20.89
509.99	21.46
510.445	21.76
510.901	20.22
511.356	20.7
511.812	20.16
512.267	21.19
512.722	18.18
513.178	20.65
513.633	21.1
514.089	21.09
514.544	20.65
514.999	19.39
515.454	19.84
515.91	20.35
516.365	20.06
516.82	19.61
517.275	19.66
517.73	20.18
518.185	19.19
518.64	19.98
519.095	20.87
519.55	20.42
520.005	19.46
520.46	19.08
520.915	19.85
521.37	19.59
521.825	18.85
522.28	19.73
522.734	19.31
523.189	19.97
523.644	21.79
524.099	20.25
524.553	20.86
525.008	19.59
525.462	20.4
525.917	19.11
526.372	19.92
526.826	21.65
527.281	21.16
527.735	19.34
528.19	21.2
528.644	21.86
529.098	19.24
529.553	22.65
530.007	20.42
530.461	21.61
530.916	20.86
531.37	20.21
531.824	21.41
532.278	21.72
532.732	20.32
533.186	20.34
533.641	18.32
534.095	20.75
534.549	23.27
535.003	19.73
535.457	21.6
535.911	20.22
536.365	19.29
536.818	21.16
537.272	19.83
537.726	21.2
538.18	19.61
538.634	20.74
539.087	21.6
539.541	21.05
539.995	17.59
540.449	18.83
540.902	22.14
541.356	19.01
541.809	20.56
542.263	19.97
542.716	20.16
543.17	20.59
543.623	20.27
544.077	18.29
544.53	18.37
544.984	21.16
545.437	20.77
545.89	20.84
546.344	17.6
546.797	19.54
547.25	20.12
547.703	20.82
548.157	20.52
548.61	18.42
549.063	21.52
549.516	19.27
549.969	21.52
550.422	19.13
550.875	19.92
551.328	21.04
551.781	21.08
552.234	20.54
552.687	18.17
553.14	21.74
553.592	19.28
554.045	20.01
554.498	21.4
554.951	22.39
555.404	20.55
555.856	20.61
556.309	21.45
556.762	20.32
557.214	20.86
557.667	21.04
558.119	21.28
558.572	19.14
559.024	20.16
559.477	22.07
559.929	21.96
560.382	20.06
560.834	21.16
561.286	21.1
561.739	22.34
562.191	20.7
562.643	22.5
563.095	18.82
563.548	18.67
564	22.02
564.452	20.15
564.904	21.93
565.356	21.27
565.808	21.93
566.26	21.31
566.712	23.37
567.164	19.62
567.616	22.74
568.068	22.99
568.52	21.71
568.972	22.89
569.424	21.6
569.876	21.53
570.327	20.82
570.779	21.16
571.231	21.91
571.682	21.8
572.134	20.63
572.586	20.94
573.037	19.94
573.489	22.12
573.941	21.92
574.392	21.11
574.844	20.93
575.295	20.42
575.746	21.93
576.198	20.31
576.649	22.23
577.101	20.32
577.552	22.09
578.003	21.7
578.454	21.07
578.906	21.94
579.357	22.53
579.808	20.69
580.259	22.4
580.71	21.64
581.161	21.95
581.612	22.54
582.064	22.04
582.515	21.31
582.965	21.65
583.416	21.22
583.867	21.41
584.318	21.34
584.769	21.05
585.22	20.33
585.671	20.87
586.122	21.17
586.572	20.52
587.023	21.05
587.474	22.27
587.924	22.66
588.375	21.1
588.826	21.16
589.276	20.59
589.727	21.67
590.177	22.06
590.628	21.07
591.078	21.59
591.529	21.4
591.979	22.32
592.429	21.82
592.88	20.62
593.33	22.82
593.78	21.86
594.231	22.69
594.681	22.1
595.131	21.04
595.581	22.29
596.031	20.21
596.481	22.54
596.932	21.71
597.382	21.39
597.832	22.42
598.282	22.73
598.732	22.32
599.182	20.92
599.632	21.27
600.081	22.39
600.531	22.39
600.981	21.25
601.431	22.18
601.881	21.71
602.33	21.19
602.78	22.44
603.23	21.57
603.679	22.12
604.129	22.46
604.579	22.71
605.028	21.38
605.478	21
605.927	22.69
606.377	21.96
606.826	21.47
607.276	23.4
607.725	22.26
608.175	21.4
608.624	22.97
609.073	21.31
609.522	21.32
609.972	22.15
610.421	21.56
610.87	21.49
611.319	21.38
611.768	22.67
612.218	20.55
612.667	22.3
613.116	21.42
613.565	21
614.014	22.42
614.463	23.03
614.912	21.35
615.361	20.45
615.81	21.9
616.258	22.02
616.707	22.51
617.156	20.74
617.605	22.82
618.054	22.17
618.502	22.47
618.951	22.18
619.4	23.12
619.848	21.68
620.297	21.47
620.745	22.13
621.194	21.28
621.642	21.75
622.091	21.55
622.539	21.91
622.988	21.25
623.436	22.39
623.885	21.3
624.333	23.96
624.781	21.8
625.23	22.53
625.678	21.24
626.126	22.04
626.574	22.46
627.022	23.29
627.471	20.66
627.919	21.9
628.367	22.32
628.815	21.66
629.263	22.63
629.711	21.37
630.159	22.26
630.607	22.32
631.055	22.08
631.503	21.79
631.95	21.51
632.398	21.14
632.846	22.2
633.294	22.68
633.742	21.58
634.189	21.82
634.637	22.02
635.085	22.55
635.532	21.21
635.98	21.15
636.427	21.8
636.875	22.54
637.323	22.34
637.77	22.48
638.217	21.18
638.665	22.57
639.112	22.27
639.56	22.28
640.007	21.73
640.454	23.04
640.902	22.06
641.349	21.93
641.796	22.54
642.243	21.67
642.69	21.59
643.138	21.75
643.585	21.98
644.032	22.11
644.479	22.45
644.926	21.64
645.373	22.55
645.82	21.52
646.267	21.32
646.714	21.26
647.161	22.91
647.607	22.66
648.054	21.63
648.501	22.51
648.948	22.55
649.395	21.99
649.841	21.81
650.288	21.86
650.735	21.37
651.181	22.38
651.628	22.69
652.075	22.52
652.521	22.55
652.968	22.33
653.414	22.68
653.861	22.62
654.307	22.95
654.753	20.27
655.2	22.5
655.646	21.78
656.092	21.85
656.539	22.09
656.985	22.22
657.431	22.93
657.877	22.29
658.324	22.66
658.77	21.67
659.216	21.51
659.662	21.96
660.108	21.83
660.554	21.84
661	22.02
661.446	22.7
661.892	21.79
662.338	22.02
662.784	21.65
663.23	21.36
663.675	22.81
664.121	22.3
664.567	22.14
665.013	22.55
665.458	21.89
665.904	22.56
666.35	22.53
666.795	21.76
667.241	21.81
667.687	21.44
668.132	22.54
668.578	22.09
669.023	22.43
669.469	21.97
669.914	22.38
670.359	22.49
670.805	21.77
671.25	22.48
671.695	22.54
672.141	22.63
672.586	22.52
673.031	22.3
673.476	22.66
673.922	21.25
674.367	20.96
674.812	22.63
675.257	22.6
675.702	21.17
676.147	21.52
676.592	22.12
677.037	21.89
677.482	22.06
677.927	21.26
678.372	21.53
678.817	22
679.261	22.47
679.706	22.25
680.151	21.53
680.596	21.96
681.04	22.46
681.485	21.84
681.93	22.12
682.374	23.02
682.819	22.06
683.264	22.41
683.708	22.95
684.153	21.85
684.597	22.37
685.042	22.72
685.486	21.67
685.93	22.05
686.375	22.63
686.819	21.78
687.263	22.5
687.708	21.78
688.152	22.27
688.596	22.52
689.04	22.63
689.485	24.18
689.929	22.33
690.373	22.51
690.817	22.9
691.261	22.29
691.705	22.29
692.149	22.52
692.593	22.73
693.037	22.37
693.481	22.56
693.925	22.28
694.369	22.55
694.812	21.85
695.256	21.77
695.7	22.61
696.144	21.82
696.587	22.89
697.031	22.8
697.475	22.32
697.918	22.56
698.362	21.87
698.806	22.29
699.249	22.83
699.693	22.15
700.136	22.47
700.58	22.42
701.023	22.54
701.466	22.19
701.91	22.58
702.353	22.54
702.796	22.18
703.24	21.84
703.683	22.11
704.126	22.68
704.569	22.3
705.013	21.96
705.456	22.5
705.899	21.52
706.342	22.07
706.785	22.06
707.228	21.89
707.671	22.09
708.114	22.34
708.557	21.83
709	22.21
709.443	22.98
709.886	21.89
710.328	22.46
710.771	21.42
711.214	23.07
711.657	21.61
712.099	22.18
712.542	22.45
712.985	22.36
713.427	22.18
713.87	22.28
714.313	21.26
714.755	22.46
715.198	21.57
715.64	22.24
716.083	22.53
716.525	22.49
716.967	22.51
717.41	22.45
717.852	22.22
718.295	23.06
718.737	22.96
719.179	21.29
719.621	22.09
720.063	22.32
720.506	22.16
720.948	22.04
721.39	22.03
721.832	22.35
722.274	21.59
722.716	22.2
723.158	22.27
723.6	22.41
724.042	22.53
724.484	22.27
724.926	22.28
725.368	23.06
725.81	22.44
726.251	22.48
726.693	23.07
727.135	23.52
727.577	22.17
728.018	22.33
728.46	21.45
728.902	22.24
729.343	22.73
729.785	21.85
730.226	22.37
730.668	22.07
731.109	22.31
731.551	21.2
731.992	21.7
732.434	22.32
732.875	21.84
733.316	22.08
733.758	22.56
734.199	21.65
734.64	22.26
735.081	21.98
735.523	22.89
735.964	22.2
736.405	22.68
736.846	23.09
737.287	22.97
737.728	22.35
738.169	22.33
738.61	22.31
739.051	22.93
739.492	22.55
739.933	21.99
740.374	22.58
740.815	21.7
741.256	21.84
741.696	22.14
742.137	22.72
742.578	21.72
743.019	22.44
743.459	22.17
743.9	22.49
744.341	22.15
744.781	22.2
745.222	22.02
745.662	22.13
746.103	22.52
746.543	22
746.984	22.59
747.424	22.26
747.865	22.84
748.305	22.8
748.745	22.45
749.186	21.78
749.626	22.67
750.066	22.32
750.506	22.49
750.947	22.27
751.387	21.79
751.827	22.9
752.267	22.21
752.707	22.93
753.147	22.76
753.587	22.29
754.027	23.31
754.467	22.48
754.907	22.31
755.347	22.07
755.787	21.85
756.227	21.79
756.667	22.26
757.107	22.94
757.546	22.25
757.986	21.95
758.426	21.91
758.865	22.09
759.305	22
759.745	22.14
760.184	22.84
760.624	22.71
761.063	22.25
761.503	22.52
761.943	22.97
762.382	22.59
762.821	22.27
763.261	21.87
763.7	22.74
764.14	21.74
764.579	22.18
765.018	22.6
765.457	22.25
765.897	22.17
766.336	22.98
766.775	22.18
767.214	22.12
767.653	21.88
768.092	22.7
768.531	22.12
768.97	21.95
769.409	21.85
769.848	22.03
770.287	22.44
770.726	22.51
771.165	22.54
771.604	22.12
772.043	21.82
772.482	22.46
772.92	22.45
773.359	22.34
773.798	22.09
774.237	22.33
774.675	22.55
775.114	22.65
775.553	22.07
775.991	22.03
776.43	21.94
776.868	22.85
777.307	21.77
777.745	22.38
778.184	21.85
778.622	22.62
779.06	22.25
779.499	22.86
779.937	22.15
780.375	22.45
780.814	21.78
781.252	22.86
781.69	22.19
782.128	23.06
782.566	22.18
783.004	22.29
783.443	21.91
783.881	22.28
784.319	22.29
784.757	21.67
785.195	22.25
785.633	22.75
786.071	22.24
786.508	22
786.946	21.97
787.384	22.64
787.822	21.99
788.26	22.51
788.697	22.52
789.135	21.75
789.573	21.86
790.011	22.31
790.448	21.97
790.886	22.79
791.323	22.98
791.761	23.13
792.198	22.61
792.636	23.13
793.073	22.49
793.511	21.89
793.948	23.43
794.386	22.01
794.823	22.48
795.26	22.28
795.698	22.41
796.135	22.94
796.572	22.01
797.009	22
797.446	21.96
797.884	22.84
798.321	22.65
798.758	22.18
799.195	22.48
799.632	22.46
800.069	21.93
800.506	22.7
800.943	21.58
801.38	22.35
801.817	22.31
802.254	22.45
802.69	22.22
803.127	22.55
803.564	22.11
804.001	22.53
804.438	22.16
804.874	22.59
805.311	22.49
805.748	22.13
806.184	23.35
806.621	22.31
807.057	21.96
807.494	22.36
807.93	22.65
808.367	22
808.803	21.85
809.24	22.68
809.676	22.72
810.112	22.46
810.549	22.52
810.985	23.19
811.421	22.54
811.857	22.11
