Data from JCR0017_YellowVentral_Reflection_00003.txt Node
Date: Thu Jul 23 16:15:21 ACST 2020
User: Stacey Dix
Spectrometer: MAYP113282
Scans to average: 1
Trigger mode: 0
Integration Time (sec): 1.000000E-1
Electric dark correction enabled: true
Boxcar width: 0
XAxis mode: Wavelengths
Number of Pixels in Spectrum: 2068
>>>>>Begin Spectral Data<<<<<
198.791	-16.67
199.266	-133.33
199.74	183.33
200.215	0
200.69	17.35
201.164	-13.15
201.639	18.32
202.114	25.6
202.588	1.79
203.063	39.15
203.537	2.42
204.012	34.76
204.486	22.9
204.961	27.45
205.435	11.22
205.909	23.92
206.384	16.29
206.858	4.36
207.332	18.64
207.807	15.69
208.281	30.35
208.755	12.35
209.229	14.62
209.703	29.19
210.177	7.16
210.651	7.46
211.126	21.98
211.6	14.25
212.074	13.96
212.548	19.8
213.021	16.78
213.495	28.13
213.969	19.39
214.443	19.48
214.917	24.08
215.391	18.58
215.864	9.11
216.338	23.57
216.812	21.11
217.286	15.91
217.759	27.48
218.233	22.09
218.706	23.07
219.18	21
219.654	23.26
220.127	21.41
220.6	15.14
221.074	20.23
221.547	22.42
222.021	14.63
222.494	20.28
222.967	21.64
223.441	8.01
223.914	21.43
224.387	21.06
224.86	18.46
225.334	17.69
225.807	22.55
226.28	17.48
226.753	14.45
227.226	18.01
227.699	16.29
228.172	15.74
228.645	16.76
229.118	17.73
229.591	13.33
230.064	13.88
230.537	14.97
231.01	16.77
231.482	15.39
231.955	18.47
232.428	14.1
232.901	13.93
233.373	15.12
233.846	13.12
234.319	17.05
234.791	12.71
235.264	13.18
235.736	13.9
236.209	13.09
236.681	13.59
237.154	13.65
237.626	14.39
238.099	15.17
238.571	15.87
239.044	14.03
239.516	12.58
239.988	13.89
240.46	13.99
240.933	13.29
241.405	12.98
241.877	10.78
242.349	12.58
242.821	13.54
243.293	12
243.765	13.35
244.237	12.19
244.71	12.58
245.181	12.26
245.653	13.39
246.125	13.06
246.597	11.93
247.069	11.65
247.541	13.59
248.013	11.88
248.485	12.19
248.956	13.38
249.428	11.37
249.9	12.46
250.371	12.49
250.843	10.5
251.315	12.27
251.786	11.16
252.258	11.4
252.729	12.15
253.201	11.83
253.672	11.02
254.144	10.77
254.615	10.62
255.086	11.43
255.558	10.91
256.029	10.84
256.5	11.57
256.972	10.47
257.443	10.96
257.914	12.34
258.385	11.7
258.856	12.39
259.327	10.91
259.799	11.6
260.27	10.86
260.741	11.05
261.212	11.41
261.683	10.31
262.154	12.07
262.624	10.75
263.095	10.92
263.566	11.65
264.037	10.7
264.508	10.37
264.979	11.51
265.449	10.97
265.92	11.03
266.391	11.11
266.861	10.44
267.332	10.76
267.803	11.09
268.273	10.7
268.744	11.35
269.214	10.54
269.685	10.6
270.155	10.95
270.626	11.06
271.096	11.27
271.566	11.62
272.037	11.62
272.507	11.71
272.977	10.49
273.448	10.79
273.918	11.08
274.388	11.31
274.858	10.14
275.328	10.17
275.798	10.68
276.268	10.01
276.738	11.11
277.208	10
277.678	10.78
278.148	10.85
278.618	9.12
279.088	11.38
279.558	11.26
280.028	10.56
280.498	10.44
280.968	11.16
281.437	10.86
281.907	9.51
282.377	11.11
282.847	10.82
283.316	11.31
283.786	10.68
284.255	10.52
284.725	10.72
285.194	10.68
285.664	10.48
286.133	10.81
286.603	10.79
287.072	11.24
287.542	10.48
288.011	11.03
288.48	10.1
288.95	10.79
289.419	10.46
289.888	10.82
290.357	10.18
290.827	9.93
291.296	10.98
291.765	10.31
292.234	11.25
292.703	10.19
293.172	10.06
293.641	11.03
294.11	10.86
294.579	11.35
295.048	11.45
295.517	10.72
295.986	11.48
296.455	11.33
296.923	10.7
297.392	11.6
297.861	10.94
298.33	9.79
298.798	10.75
299.267	10.84
299.736	11.58
300.204	10.31
300.673	10.63
301.141	10.96
301.61	10.84
302.079	11.1
302.547	11.18
303.015	11.5
303.484	11.33
303.952	11.66
304.421	11.29
304.889	11.73
305.357	11.55
305.825	12.14
306.294	11.17
306.762	11.7
307.23	11.16
307.698	12.02
308.166	11.42
308.634	12.08
309.103	11.42
309.571	12.28
310.039	11.97
310.507	11.61
310.975	11.7
311.442	11.98
311.91	11.98
312.378	12.26
312.846	12.45
313.314	12.09
313.782	12.3
314.249	12.22
314.717	12.14
315.185	12.63
315.652	13.2
316.12	12.93
316.588	13.55
317.055	12.29
317.523	12.8
317.99	12.9
318.458	13.3
318.925	13.19
319.393	12.88
319.86	13.65
320.328	14.05
320.795	13.24
321.262	13.64
321.73	13.16
322.197	12.88
322.664	13.29
323.131	15.21
323.598	13.74
324.066	13.75
324.533	13.64
325	14.13
325.467	14.03
325.934	13.87
326.401	14.51
326.868	14.36
327.335	14.17
327.802	15.41
328.269	15.25
328.735	13.55
329.202	15.22
329.669	15.79
330.136	14.78
330.603	15.05
331.069	14.84
331.536	15.22
332.003	15.06
332.469	15.07
332.936	15.47
333.402	15.38
333.869	15.12
334.336	15.17
334.802	14.96
335.268	14.77
335.735	14.89
336.201	14.49
336.668	16.31
337.134	14.32
337.6	14.55
338.067	14.85
338.533	14.96
338.999	16.15
339.465	15.43
339.931	15.26
340.398	15.25
340.864	14.81
341.33	14.66
341.796	14.86
342.262	14.08
342.728	14.46
343.194	14.68
343.66	15.26
344.126	15.68
344.592	13.86
345.057	14.88
345.523	14.18
345.989	14.46
346.455	15.01
346.921	14.79
347.386	14.5
347.852	13.58
348.318	15.14
348.783	14.85
349.249	14.53
349.714	15.91
350.18	14.38
350.645	14.71
351.111	14.53
351.576	13.62
352.042	14.74
352.507	14.25
352.973	14.39
353.438	13.99
353.903	14.49
354.369	13.98
354.834	14.29
355.299	14.28
355.764	13.68
356.229	13.84
356.695	14.21
357.16	14.18
357.625	14.39
358.09	13.77
358.555	14.41
359.02	14.14
359.485	13.51
359.95	13.46
360.415	14.6
360.879	13.24
361.344	14.47
361.809	14.17
362.274	13.94
362.739	13.32
363.203	14.13
363.668	13.69
364.133	12.68
364.597	13.62
365.062	13.47
365.527	12.89
365.991	13.94
366.456	13.28
366.92	13.12
367.385	12.71
367.849	13.14
368.314	12.84
368.778	12.94
369.242	12.98
369.707	12.92
370.171	12.57
370.635	12.58
371.1	12.95
371.564	12.8
372.028	14.15
372.492	12.65
372.956	12.88
373.42	11.99
373.884	12.51
374.348	12.96
374.812	13.23
375.276	12.78
375.74	12.66
376.204	12.88
376.668	12.96
377.132	13.22
377.596	11.63
378.06	11.82
378.524	12.4
378.987	11.37
379.451	12.47
379.915	11.09
380.378	12.11
380.842	11.92
381.306	12.38
381.769	11.79
382.233	12.88
382.696	11.39
383.16	11.84
383.623	12.19
384.087	12.07
384.55	11.64
385.014	12.16
385.477	11.52
385.94	12.07
386.404	11.53
386.867	10.96
387.33	12.16
387.793	12.13
388.256	12.01
388.72	11.84
389.183	11.43
389.646	11.41
390.109	11.71
390.572	11.56
391.035	11.68
391.498	11.94
391.961	10.69
392.424	11.24
392.887	11.22
393.35	11.17
393.812	10.94
394.275	11.21
394.738	11.15
395.201	11.35
395.664	11.5
396.126	10.73
396.589	11.06
397.052	10.63
397.514	11.22
397.977	10.96
398.439	11.35
398.902	10.65
399.364	10.32
399.827	11.11
400.289	11.55
400.752	11.56
401.214	10.59
401.676	10.89
402.139	10.55
402.601	11
403.063	10.73
403.525	11.05
403.988	10.37
404.45	10.44
404.912	10.9
405.374	10.35
405.836	10.7
406.298	10.99
406.76	9.9
407.222	10.62
407.684	10.69
408.146	10.03
408.608	11
409.07	10.86
409.532	9.79
409.994	10.68
410.456	10.12
410.917	10.69
411.379	10.07
411.841	10.09
412.303	10.52
412.764	9.79
413.226	10.05
413.687	9.55
414.149	9.76
414.611	10.54
415.072	9.93
415.534	10.11
415.995	9.79
416.457	9.44
416.918	10.27
417.379	10.26
417.841	10.26
418.302	10.2
418.763	9.94
419.225	9.95
419.686	10.19
420.147	9.82
420.608	10.23
421.069	9.93
421.53	9.84
421.991	10.71
422.453	10.74
422.914	10.12
423.375	9.47
423.836	9.22
424.297	9.6
424.757	9.83
425.218	10.53
425.679	9.45
426.14	10.69
426.601	10.25
427.062	10.05
427.522	9.83
427.983	9.97
428.444	9.72
428.904	10.2
429.365	10.32
429.826	10.38
430.286	10.4
430.747	10.79
431.207	10.28
431.668	10.87
432.128	11.11
432.589	10.86
433.049	10.15
433.509	10.04
433.97	10.3
434.43	10.6
434.89	10.18
435.351	10.4
435.811	10.77
436.271	10.62
436.731	10.49
437.191	11.47
437.651	9.31
438.112	9.58
438.572	8.56
439.032	9.7
439.492	11.24
439.952	9.91
440.412	11.2
440.871	10.72
441.331	11.68
441.791	12.37
442.251	11.85
442.711	11.2
443.171	11.96
443.63	11.69
444.09	10.04
444.55	11.01
445.009	10.21
445.469	10.78
445.929	10.49
446.388	11.51
446.848	11.01
447.307	10.91
447.767	10.2
448.226	11.59
448.686	11.22
449.145	10.26
449.604	10.08
450.064	11.12
450.523	9.82
450.982	11.19
451.442	11.45
451.901	10.7
452.36	10.04
452.819	10.51
453.278	10.78
453.737	12.02
454.197	11.1
454.656	11.4
455.115	10.73
455.574	11.31
456.033	11.67
456.492	11.88
456.95	11.14
457.409	10.12
457.868	12.14
458.327	11.76
458.786	10.41
459.245	11.67
459.703	11.67
460.162	11.64
460.621	13.19
461.079	10.83
461.538	10.83
461.997	12.23
462.455	11.85
462.914	13.12
463.372	13.21
463.831	11.56
464.289	11.46
464.748	11.21
465.206	12.16
465.664	10.94
466.123	12.69
466.581	11.25
467.039	12.73
467.497	10.72
467.956	14.22
468.414	12.02
468.872	12.49
469.33	12.53
469.788	12.99
470.246	12.53
470.704	13.47
471.162	11.93
471.62	13.07
472.078	13.27
472.536	13.79
472.994	13.99
473.452	13.56
473.91	13.11
474.368	13.12
474.826	13.76
475.283	13.35
475.741	15.15
476.199	14.77
476.656	14.67
477.114	15.42
477.572	15.66
478.029	15.44
478.487	14.41
478.944	16.74
479.402	15.44
479.859	16.64
480.317	16.33
480.774	17.75
481.232	15.24
481.689	15.95
482.146	18.98
482.604	18.71
483.061	17.82
483.518	18.27
483.975	18.54
484.433	17.27
484.89	18.09
485.347	20.48
485.804	19.32
486.261	17.01
486.718	20.76
487.175	20.44
487.632	20.75
488.089	19.53
488.546	20.86
489.003	20.15
489.46	22.08
489.917	20.57
490.373	21.85
490.83	20.6
491.287	21.34
491.744	22.8
492.2	19.79
492.657	23.23
493.114	23.23
493.57	22.88
494.027	23.16
494.484	22.64
494.94	23.31
495.397	23.04
495.853	22.83
496.31	23.2
496.766	23.23
497.222	24.15
497.679	23.54
498.135	23.69
498.591	24.01
499.048	24.09
499.504	24.54
499.96	22.46
500.416	26.13
500.872	25.58
501.329	25.17
501.785	24.66
502.241	25.25
502.697	24.5
503.153	25.53
503.609	23.83
504.065	26.24
504.521	25.23
504.977	24.89
505.432	24.67
505.888	26.62
506.344	25.63
506.8	27.02
507.256	25.38
507.711	27.4
508.167	26.03
508.623	24.12
509.078	25.24
509.534	26.43
509.99	26.45
510.445	25.38
510.901	26.87
511.356	25.84
511.812	28.18
512.267	26.68
512.722	25.87
513.178	26.62
513.633	24.09
514.089	28.19
514.544	26.75
514.999	26.35
515.454	26.08
515.91	26.97
516.365	26.33
516.82	26.55
517.275	27.08
517.73	26.39
518.185	26.35
518.64	27.19
519.095	27.92
519.55	25.82
520.005	26.74
520.46	27.78
520.915	26.6
521.37	27.54
521.825	27.38
522.28	26.12
522.734	27.47
523.189	27.77
523.644	26.57
524.099	26.75
524.553	25.89
525.008	27.53
525.462	28.25
525.917	28.22
526.372	27.71
526.826	28.78
527.281	26.12
527.735	27.37
528.19	27.45
528.644	28.85
529.098	28.11
529.553	28.28
530.007	27.78
530.461	27.15
530.916	28.22
531.37	27.94
531.824	29.37
532.278	28.43
532.732	27.21
533.186	28.95
533.641	28.27
534.095	28.48
534.549	29.15
535.003	27.46
535.457	28.44
535.911	28.19
536.365	27.38
536.818	29.26
537.272	27.2
537.726	29.08
538.18	28.96
538.634	27.47
539.087	27.27
539.541	28.56
539.995	26.85
540.449	28.68
540.902	27.08
541.356	28.7
541.809	28.58
542.263	26.4
542.716	28.6
543.17	29.73
543.623	26.85
544.077	27.47
544.53	26.83
544.984	29.61
545.437	28.43
545.89	28.07
546.344	28.97
546.797	27.28
547.25	28.49
547.703	28.74
548.157	28.93
548.61	28.19
549.063	30.03
549.516	27.98
549.969	29.49
550.422	28.97
550.875	29.7
551.328	28.44
551.781	27.54
552.234	28.95
552.687	29.8
553.14	29.06
553.592	28.61
554.045	29.41
554.498	28.68
554.951	29.61
555.404	29.47
555.856	29.38
556.309	28.85
556.762	27.69
557.214	28.24
557.667	30.16
558.119	29.07
558.572	28.53
559.024	28.57
559.477	28.39
559.929	30.5
560.382	28.35
560.834	28.46
561.286	30.5
561.739	27.72
562.191	29.45
562.643	27.6
563.095	29.07
563.548	28.16
564	29.2
564.452	29.71
564.904	28.66
565.356	28.29
565.808	29.07
566.26	29.6
566.712	28.99
567.164	29.69
567.616	29.81
568.068	28.69
568.52	30.04
568.972	30.06
569.424	27.93
569.876	28.82
570.327	29.25
570.779	29.57
571.231	29.73
571.682	30.52
572.134	28.18
572.586	29
573.037	28.33
573.489	30.25
573.941	30.63
574.392	29.33
574.844	29.22
575.295	29.35
575.746	30.28
576.198	29.41
576.649	29.88
577.101	29.71
577.552	30.47
578.003	30.1
578.454	29.31
578.906	29.43
579.357	29.05
579.808	30.09
580.259	29.61
580.71	29.54
581.161	30.38
581.612	28.76
582.064	30.04
582.515	29.39
582.965	29.35
583.416	29.68
583.867	29.53
584.318	30.17
584.769	29.17
585.22	29.63
585.671	29.65
586.122	29.32
586.572	29.35
587.023	30.78
587.474	30.22
587.924	30.2
588.375	30.07
588.826	28.98
589.276	30.32
589.727	29.86
590.177	30.46
590.628	30.2
591.078	30.04
591.529	28.98
591.979	29.3
592.429	28.82
592.88	30.55
593.33	30.11
593.78	30.54
594.231	29.66
594.681	30.07
595.131	30.43
595.581	30.37
596.031	29.38
596.481	30.93
596.932	29.91
597.382	30.08
597.832	30.14
598.282	30.23
598.732	30.81
599.182	30.08
599.632	30.3
600.081	30.18
600.531	30.06
600.981	29.87
601.431	30.72
601.881	29.74
602.33	30.69
602.78	29.18
603.23	30.27
603.679	29.65
604.129	29.88
604.579	31.51
605.028	30.85
605.478	30
605.927	29.75
606.377	30.99
606.826	29.79
607.276	29.33
607.725	30.16
608.175	30.88
608.624	29.04
609.073	30.6
609.522	29.51
609.972	30.44
610.421	30.71
610.87	30.16
611.319	29.27
611.768	30.78
612.218	29.15
612.667	30.07
613.116	29.94
613.565	30.46
614.014	29.59
614.463	31.36
614.912	30.44
615.361	30.96
615.81	30.63
616.258	30.15
616.707	31.08
617.156	30.83
617.605	29.74
618.054	30.53
618.502	30.9
618.951	30.38
619.4	29.79
619.848	30.86
620.297	30.55
620.745	30.37
621.194	30.92
621.642	30.25
622.091	30.24
622.539	29.66
622.988	30.66
623.436	31.62
623.885	30.43
624.333	29.5
624.781	30.18
625.23	30.07
625.678	30.68
626.126	30.2
626.574	30.46
627.022	30.58
627.471	30.45
627.919	29.56
628.367	30.63
628.815	30.64
629.263	30.69
629.711	30.42
630.159	30.87
630.607	30.24
631.055	30.69
631.503	30.47
631.95	30.47
632.398	30.17
632.846	31.11
633.294	30.48
633.742	30.08
634.189	30.3
634.637	30.89
635.085	31.63
635.532	31.74
635.98	30.34
636.427	30.62
636.875	31.32
637.323	30.94
637.77	30.75
638.217	30.68
638.665	31.46
639.112	30.97
639.56	30.22
640.007	31.08
640.454	30.98
640.902	30.89
641.349	30.65
641.796	31.47
642.243	31.06
642.69	30.55
643.138	30.59
643.585	31.68
644.032	30.36
644.479	29.91
644.926	31.3
645.373	31.99
645.82	29.78
646.267	30.61
646.714	30.99
647.161	31.14
647.607	30.92
648.054	31.02
648.501	30.9
648.948	29.85
649.395	30.67
649.841	30.64
650.288	30.41
650.735	31.05
651.181	30.99
651.628	30.45
652.075	30.58
652.521	30.83
652.968	30.93
653.414	31.08
653.861	31.03
654.307	30.48
654.753	31.16
655.2	30.68
655.646	30.85
656.092	30.5
656.539	31.7
656.985	30.61
657.431	30.5
657.877	30.55
658.324	29.66
658.77	30.86
659.216	31.29
659.662	30.41
660.108	31.1
660.554	31.49
661	30.44
661.446	30.28
661.892	31.34
662.338	30.86
662.784	30.7
663.23	30.24
663.675	30.89
664.121	30.25
664.567	30.88
665.013	30.88
665.458	31.06
665.904	30.31
666.35	30.35
666.795	30.84
667.241	30.38
667.687	30.87
668.132	30.85
668.578	30.12
669.023	31.2
669.469	30.74
669.914	30.43
670.359	29.72
670.805	30.54
671.25	30.42
671.695	31.19
672.141	30.27
672.586	30.63
673.031	31.26
673.476	30.81
673.922	30.18
674.367	30.01
674.812	30.81
675.257	29.95
675.702	30.94
676.147	30.57
676.592	30.97
677.037	31.94
677.482	30.77
677.927	30.26
678.372	31.25
678.817	30.95
679.261	30.84
679.706	30.52
680.151	30.63
680.596	31.19
681.04	30.76
681.485	31.56
681.93	30.73
682.374	30.5
682.819	30.49
683.264	30.07
683.708	31.24
684.153	30.44
684.597	30.88
685.042	31.11
685.486	30.38
685.93	30.45
686.375	30.74
686.819	30.53
687.263	30.54
687.708	30.6
688.152	31.08
688.596	30.53
689.04	30.38
689.485	30.41
689.929	31.16
690.373	30.86
690.817	30.85
691.261	30.2
691.705	30.66
692.149	30.73
692.593	30.84
693.037	31.08
693.481	31
693.925	31.03
694.369	31.19
694.812	30.29
695.256	30.45
695.7	30.1
696.144	30.82
696.587	30.69
697.031	31.11
697.475	30.66
697.918	31.38
698.362	30.63
698.806	30.82
699.249	30.21
699.693	30.84
700.136	30.64
700.58	30.59
701.023	30.36
701.466	30.71
701.91	30.79
702.353	30.33
702.796	30.97
703.24	30.21
703.683	30.71
704.126	31.2
704.569	30.73
705.013	30.87
705.456	30.92
705.899	30.93
706.342	30.99
706.785	31.21
707.228	30.18
707.671	30.63
708.114	30.95
708.557	31.14
709	30.18
709.443	30.03
709.886	30.71
710.328	30.23
710.771	30.65
711.214	30.5
711.657	30.12
712.099	30.22
712.542	30.23
712.985	30.68
713.427	31.03
713.87	31.26
714.313	30.5
714.755	30.28
715.198	30.71
715.64	30.92
716.083	30.66
716.525	29.94
716.967	30.88
717.41	30.22
717.852	30.27
718.295	30.97
718.737	29.77
719.179	30.53
719.621	30.24
720.063	30.59
720.506	30.58
720.948	30.57
721.39	30.38
721.832	30.74
722.274	31.13
722.716	30.62
723.158	30.87
723.6	30.63
724.042	30.53
724.484	30.22
724.926	30.54
725.368	30.57
725.81	30.08
726.251	30.42
726.693	31.38
727.135	30.2
727.577	30.75
728.018	30.44
728.46	30.42
728.902	30.07
729.343	30.25
729.785	30.73
730.226	30.13
730.668	30.07
731.109	30.61
731.551	31.08
731.992	30.3
732.434	30.77
732.875	30.02
733.316	29.89
733.758	29.98
734.199	29.73
734.64	30.15
735.081	29.84
735.523	29.51
735.964	30.75
736.405	30.64
736.846	30.68
737.287	29.58
737.728	29.64
738.169	30.24
738.61	30.4
739.051	30.38
739.492	30.41
739.933	30.94
740.374	29.75
740.815	30.51
741.256	29.39
741.696	29.77
742.137	31.2
742.578	29.75
743.019	29.33
743.459	30.35
743.9	30.01
744.341	29.9
744.781	29.52
745.222	29.67
745.662	30.64
746.103	29.96
746.543	29.91
746.984	29.55
747.424	29.91
747.865	30.52
748.305	30.71
748.745	30.1
749.186	30.64
749.626	30.15
750.066	30.52
750.506	30.13
750.947	29.92
751.387	29.92
751.827	29.96
752.267	29.88
752.707	30.26
753.147	30.46
753.587	30.85
754.027	29.42
754.467	30.38
754.907	30.77
755.347	30.18
755.787	30.07
756.227	30.11
756.667	30.31
757.107	30.21
757.546	30.11
757.986	30.11
758.426	30.65
758.865	29.8
759.305	29.72
759.745	29.65
760.184	30.32
760.624	30.68
761.063	30.37
761.503	30.22
761.943	30.15
762.382	29.59
762.821	30.45
763.261	30.12
763.7	29.86
764.14	29.78
764.579	29.69
765.018	30.18
765.457	29.91
765.897	30.21
766.336	29.98
766.775	29.69
767.214	29.94
767.653	29.78
768.092	30.67
768.531	29.81
768.97	29.7
769.409	29.22
769.848	30.29
770.287	29.72
770.726	30.34
771.165	29.54
771.604	29.71
772.043	29.7
772.482	29.63
772.92	30.19
773.359	30.15
773.798	29.86
774.237	29.82
774.675	29.94
775.114	30.68
775.553	29.58
775.991	29.98
776.43	30.17
776.868	29.17
777.307	30.32
777.745	29.77
778.184	29.92
778.622	30
779.06	29.6
779.499	29.6
779.937	29.64
780.375	29.06
780.814	30.14
781.252	29.4
781.69	30.4
782.128	29.42
782.566	29.78
783.004	30.01
783.443	29.82
783.881	29.1
784.319	30.07
784.757	29.61
785.195	29.25
785.633	29.28
786.071	30.09
786.508	29.1
786.946	29.88
787.384	29.13
787.822	29.86
788.26	29.2
788.697	29.71
789.135	29.06
789.573	29.67
790.011	29.43
790.448	29.76
790.886	29.74
791.323	29.31
791.761	29.77
792.198	29.18
792.636	29.27
793.073	29.46
793.511	29.26
793.948	29.12
794.386	29.68
794.823	29.24
795.26	29.62
795.698	29.29
796.135	29.28
796.572	29.85
797.009	28.83
797.446	29.51
797.884	29.6
798.321	29.08
798.758	29.21
799.195	29.26
799.632	29.68
800.069	29.48
800.506	29.93
800.943	29.59
801.38	29.92
801.817	29.24
802.254	29.82
802.69	29.33
803.127	29.49
803.564	29.84
804.001	29.84
804.438	29.66
804.874	29.27
805.311	29.02
