Data from JCR0002_YellowVentral_Reflection_00001.txt Node
Date: Wed Jul 22 12:03:44 ACST 2020
User: Stacey Dix
Spectrometer: MAYP113282
Scans to average: 1
Trigger mode: 0
Integration Time (sec): 1.000000E-1
Electric dark correction enabled: true
Boxcar width: 0
XAxis mode: Wavelengths
Number of Pixels in Spectrum: 2068
>>>>>Begin Spectral Data<<<<<
198.791	-714.29
199.266	100
199.74	-1100
200.215	325
200.69	145.28
201.164	111.25
201.639	109.47
202.114	73.91
202.588	143.82
203.063	120.61
203.537	100
204.012	82.86
204.486	90.13
204.961	89.22
205.435	81.34
205.909	97.99
206.384	80.8
206.858	140.38
207.332	89.34
207.807	107.06
208.281	82.86
208.755	112.61
209.229	68.16
209.703	71.23
210.177	100
210.651	81.25
211.126	122.69
211.6	111.19
212.074	76.32
212.548	53.07
213.021	83.02
213.495	90.84
213.969	114.91
214.443	68.66
214.917	114.02
215.391	74.21
215.864	89.29
216.338	95.63
216.812	77.16
217.286	59.28
217.759	85.16
218.233	72.24
218.706	98.1
219.18	86.31
219.654	83.98
220.127	72.62
220.6	49.8
221.074	46.39
221.547	45.17
222.021	77.19
222.494	42.48
222.967	59.37
223.441	53.71
223.914	55.52
224.387	74.91
224.86	45.39
225.334	69.92
225.807	51.97
226.28	49.59
226.753	52.88
227.226	42.66
227.699	42.28
228.172	50.98
228.645	43.49
229.118	38.17
229.591	31.5
230.064	43.11
230.537	35.77
231.01	29.2
231.482	35.53
231.955	30.87
232.428	33.14
232.901	30.05
233.373	34.22
233.846	34.75
234.319	31.2
234.791	28.31
235.264	33.79
235.736	23.85
236.209	30.63
236.681	27.73
237.154	25.78
237.626	27.23
238.099	24.48
238.571	26.94
239.044	24.49
239.516	27.47
239.988	30.15
240.46	23.91
240.933	25.85
241.405	26.05
241.877	24.07
242.349	22.1
242.821	25.85
243.293	24.8
243.765	20.72
244.237	23.72
244.71	21.42
245.181	22.38
245.653	25.33
246.125	24.92
246.597	21.39
247.069	22.05
247.541	24.27
248.013	25.6
248.485	24.14
248.956	18.15
249.428	21.1
249.9	22.42
250.371	21.55
250.843	17.76
251.315	21.46
251.786	16.8
252.258	18.43
252.729	17.85
253.201	18.71
253.672	18.89
254.144	17.21
254.615	17.87
255.086	18.96
255.558	17.39
256.029	17.33
256.5	18.31
256.972	19.41
257.443	16.64
257.914	19.16
258.385	19.42
258.856	16.29
259.327	17.87
259.799	17.8
260.27	17.68
260.741	16.3
261.212	15.68
261.683	18.2
262.154	18.12
262.624	16.67
263.095	16.74
263.566	17.54
264.037	17.86
264.508	17.31
264.979	18.85
265.449	16.49
265.92	15.75
266.391	17.95
266.861	17
267.332	17.04
267.803	17.79
268.273	16.67
268.744	17.07
269.214	17.43
269.685	17.33
270.155	16.7
270.626	17.08
271.096	17.25
271.566	19.72
272.037	14.42
272.507	16.88
272.977	19.92
273.448	16.71
273.918	19.56
274.388	18.36
274.858	16.46
275.328	18.15
275.798	17.68
276.268	16.95
276.738	19.85
277.208	16.91
277.678	20.94
278.148	20.52
278.618	20.02
279.088	17.68
279.558	18.37
280.028	20.13
280.498	18.85
280.968	16.13
281.437	18.6
281.907	16.52
282.377	15.97
282.847	14.75
283.316	16.47
283.786	17.11
284.255	15.31
284.725	13.83
285.194	17.67
285.664	17.83
286.133	15.36
286.603	14.91
287.072	18.43
287.542	16.83
288.011	15.92
288.48	16.2
288.95	15.49
289.419	18.04
289.888	15.16
290.357	17.31
290.827	16.77
291.296	14.5
291.765	16.39
292.234	19.31
292.703	15.74
293.172	15.4
293.641	16.73
294.11	14.11
294.579	15.78
295.048	15.87
295.517	19.46
295.986	16.15
296.455	17.29
296.923	17.45
297.392	17.76
297.861	17.45
298.33	16.9
298.798	18.54
299.267	21.03
299.736	19.4
300.204	19.06
300.673	17.25
301.141	18.12
301.61	14.92
302.079	16.7
302.547	19.72
303.015	17.55
303.484	16.69
303.952	19.1
304.421	18.45
304.889	18.42
305.357	18.54
305.825	18.19
306.294	16.73
306.762	16.36
307.23	18.24
307.698	18.58
308.166	20.42
308.634	17.47
309.103	18.14
309.571	17.08
310.039	15.6
310.507	17.95
310.975	17.29
311.442	19.62
311.91	19.25
312.378	18.09
312.846	18.68
313.314	18.59
313.782	17.92
314.249	19.4
314.717	18.74
315.185	16.28
315.652	19.87
316.12	21.73
316.588	17.97
317.055	17.48
317.523	17.18
317.99	18.53
318.458	19.45
318.925	20.35
319.393	17.02
319.86	18.28
320.328	17.14
320.795	18.34
321.262	17.45
321.73	19.11
322.197	19.23
322.664	16.94
323.131	18.62
323.598	18.26
324.066	19.11
324.533	18.31
325	17
325.467	17.85
325.934	19.09
326.401	18.31
326.868	19.94
327.335	19.49
327.802	19.13
328.269	19.17
328.735	19.58
329.202	16.98
329.669	16.87
330.136	20.17
330.603	18.8
331.069	17.94
331.536	20.79
332.003	18.81
332.469	18.15
332.936	18.69
333.402	19.71
333.869	18.17
334.336	18.57
334.802	16.9
335.268	15.61
335.735	18.89
336.201	18.06
336.668	19.19
337.134	21.31
337.6	18.02
338.067	19.33
338.533	20.36
338.999	19.46
339.465	18.44
339.931	18.11
340.398	18.06
340.864	18.17
341.33	17.79
341.796	18.18
342.262	19.43
342.728	17.04
343.194	18.24
343.66	17.04
344.126	17.22
344.592	16.78
345.057	18.09
345.523	18.54
345.989	19.83
346.455	19.18
346.921	18.31
347.386	20.47
347.852	18.37
348.318	18.38
348.783	20.84
349.249	16.24
349.714	18.74
350.18	17.24
350.645	20.13
351.111	18.21
351.576	18
352.042	15.83
352.507	16.96
352.973	19.92
353.438	16.02
353.903	18.62
354.369	18.3
354.834	17.65
355.299	20.01
355.764	18.67
356.229	17.13
356.695	16.08
357.16	17.7
357.625	16.02
358.09	18.92
358.555	17.95
359.02	18.21
359.485	16.64
359.95	19.21
360.415	16.69
360.879	18.13
361.344	17.42
361.809	16.81
362.274	17.76
362.739	18.57
363.203	17.02
363.668	17.4
364.133	15.73
364.597	17.91
365.062	16.55
365.527	16.02
365.991	16.69
366.456	15.94
366.92	18.03
367.385	15.54
367.849	17.48
368.314	17.52
368.778	14.44
369.242	15.66
369.707	18.19
370.171	15.92
370.635	17.86
371.1	14.61
371.564	17.06
372.028	18.55
372.492	17.38
372.956	14.49
373.42	17.92
373.884	14.8
374.348	16.49
374.812	16.89
375.276	13.54
375.74	15.63
376.204	18.06
376.668	15.46
377.132	17.85
377.596	13.8
378.06	17.3
378.524	15.43
378.987	13.47
379.451	15.59
379.915	17.35
380.378	15.86
380.842	13.65
381.306	16.41
381.769	15.74
382.233	15.9
382.696	15.04
383.16	14.64
383.623	16.41
384.087	15.42
384.55	15.81
385.014	14.64
385.477	15.53
385.94	17.75
386.404	17.47
386.867	14.5
387.33	14.84
387.793	15.84
388.256	15.48
388.72	15.23
389.183	15.75
389.646	15.31
390.109	13.21
390.572	15.19
391.035	14.45
391.498	14.41
391.961	15.08
392.424	14.92
392.887	15.74
393.35	13.3
393.812	14.39
394.275	13.48
394.738	14.44
395.201	14.86
395.664	14.97
396.126	16.28
396.589	14.31
397.052	14.4
397.514	15.64
397.977	15.62
398.439	15.44
398.902	13.16
399.364	14.46
399.827	16.11
400.289	15.87
400.752	16.27
401.214	14.44
401.676	14.64
402.139	15.47
402.601	13.25
403.063	13.77
403.525	16.23
403.988	14.51
404.45	14
404.912	15.71
405.374	14.27
405.836	15.06
406.298	14.99
406.76	15.15
407.222	14.44
407.684	15.15
408.146	13.72
408.608	11.82
409.07	14.32
409.532	17.26
409.994	13.13
410.456	16.19
410.917	13.49
411.379	13.37
411.841	14.46
412.303	12.97
412.764	14.33
413.226	14.1
413.687	11.23
414.149	13.46
414.611	13.83
415.072	14.12
415.534	13.7
415.995	14.6
416.457	15.02
416.918	13.28
417.379	13.74
417.841	14.63
418.302	13.92
418.763	16.46
419.225	13.32
419.686	12.59
420.147	13.75
420.608	14.07
421.069	14.39
421.53	15.39
421.991	14.08
422.453	14.06
422.914	12.74
423.375	14.26
423.836	13.55
424.297	13.96
424.757	14.75
425.218	13.21
425.679	14.53
426.14	14.02
426.601	15.49
427.062	15.19
427.522	16.15
427.983	13.73
428.444	16.58
428.904	18.2
429.365	15.69
429.826	16.11
430.286	15
430.747	17.29
431.207	15.71
431.668	15.01
432.128	17.94
432.589	18.72
433.049	16.63
433.509	14.9
433.97	17.91
434.43	15.07
434.89	15.64
435.351	15.61
435.811	17.19
436.271	15.81
436.731	17.14
437.191	12.48
437.651	11.32
438.112	15.49
438.572	14.88
439.032	15.22
439.492	15.78
439.952	13.57
440.412	13.1
440.871	14.61
441.331	14.52
441.791	14.4
442.251	16.32
442.711	13.49
443.171	11.51
443.63	13.13
444.09	14.38
444.55	16.16
445.009	14.27
445.469	14.1
445.929	12.46
446.388	14.52
446.848	13.91
447.307	18.34
447.767	12.56
448.226	13.47
448.686	15.23
449.145	11.6
449.604	13.14
450.064	13.72
450.523	14.54
450.982	16.11
451.442	14.14
451.901	16.4
452.36	14.62
452.819	13.64
453.278	14.97
453.737	14.66
454.197	12.88
454.656	13.2
455.115	17.35
455.574	11.75
456.033	17.02
456.492	17.16
456.95	13.39
457.409	15.51
457.868	15.07
458.327	16.37
458.786	13.71
459.245	15.02
459.703	16.64
460.162	14.63
460.621	12.59
461.079	15.41
461.538	16.01
461.997	15.23
462.455	14.81
462.914	15.51
463.372	14.22
463.831	17.05
464.289	13.95
464.748	18.94
465.206	12.32
465.664	15.44
466.123	15.51
466.581	12.35
467.039	15.25
467.497	17.31
467.956	17.12
468.414	16.61
468.872	15.75
469.33	17.2
469.788	11.35
470.246	15.36
470.704	17.13
471.162	15.75
471.62	15.06
472.078	19.54
472.536	16.79
472.994	17.12
473.452	14.52
473.91	15.48
474.368	15.48
474.826	13.04
475.283	18.3
475.741	18.38
476.199	12.99
476.656	19.28
477.114	16.35
477.572	13.87
478.029	16.74
478.487	19.68
478.944	15.93
479.402	17.83
479.859	20.81
480.317	14.25
480.774	17.31
481.232	17.99
481.689	19.45
482.146	17.3
482.604	20.19
483.061	18.89
483.518	18.72
483.975	18.51
484.433	16.87
484.89	15.39
485.347	19.63
485.804	18.68
486.261	20.17
486.718	17.14
487.175	19.94
487.632	21.26
488.089	20.58
488.546	18.53
489.003	18.28
489.46	22.2
489.917	21.9
490.373	19.33
490.83	17.71
491.287	20.74
491.744	21.45
492.2	21.15
492.657	19.72
493.114	19.68
493.57	22.09
494.027	21.2
494.484	21.99
494.94	20.69
495.397	21.94
495.853	21.09
496.31	23.21
496.766	21.68
497.222	24.66
497.679	20.77
498.135	21.68
498.591	20.53
499.048	22.53
499.504	20.96
499.96	21.79
500.416	20.82
500.872	21.11
501.329	23.14
501.785	26.01
502.241	23.01
502.697	21.67
503.153	20.46
503.609	25.23
504.065	22.08
504.521	20.18
504.977	22.64
505.432	24.44
505.888	22.29
506.344	22.43
506.8	22.36
507.256	20.83
507.711	23.49
508.167	24.66
508.623	23.97
509.078	21.51
509.534	24.38
509.99	22.49
510.445	24.71
510.901	24.22
511.356	23.21
511.812	23.22
512.267	23.08
512.722	23.92
513.178	25.3
513.633	20.24
514.089	22.32
514.544	24.8
514.999	20.99
515.454	24.29
515.91	26.24
516.365	22.64
516.82	21.64
517.275	26.71
517.73	26.1
518.185	25.11
518.64	25.41
519.095	26.82
519.55	24.18
520.005	23.53
520.46	25.34
520.915	25.86
521.37	25.82
521.825	24.98
522.28	24.35
522.734	25.72
523.189	27.86
523.644	24.91
524.099	25.17
524.553	23.51
525.008	24.42
525.462	28.71
525.917	26.31
526.372	23.65
526.826	24.17
527.281	26.05
527.735	26.6
528.19	27.6
528.644	25.47
529.098	30.1
529.553	28.98
530.007	26.41
530.461	28.04
530.916	29.42
531.37	27.11
531.824	29.24
532.278	30.6
532.732	28.04
533.186	31.35
533.641	29.74
534.095	30.75
534.549	28.35
535.003	28.77
535.457	29.15
535.911	28.03
536.365	28.34
536.818	26.75
537.272	27.96
537.726	31.82
538.18	32.56
538.634	27.79
539.087	29.42
539.541	27.46
539.995	31.08
540.449	33.41
540.902	30.08
541.356	30.94
541.809	31.7
542.263	31.83
542.716	32.09
543.17	30.93
543.623	33.76
544.077	34.28
544.53	30.81
544.984	35.33
545.437	32.47
545.89	30.3
546.344	33.99
546.797	33.07
547.25	33.12
547.703	34.4
548.157	36.67
548.61	35.15
549.063	35.44
549.516	31.59
549.969	35.73
550.422	35.94
550.875	35.66
551.328	33.09
551.781	36.43
552.234	33.57
552.687	34.2
553.14	35.33
553.592	32.33
554.045	34.87
554.498	35.7
554.951	36.12
555.404	35.15
555.856	36.09
556.309	35.69
556.762	37.08
557.214	36.83
557.667	33.85
558.119	36.08
558.572	33.84
559.024	37.71
559.477	37.42
559.929	36.19
560.382	36.28
560.834	36.26
561.286	36.73
561.739	36.46
562.191	36.46
562.643	39.06
563.095	37.63
563.548	35.7
564	40.16
564.452	36.27
564.904	40.89
565.356	38.13
565.808	35.65
566.26	37.9
566.712	37.6
567.164	39.41
567.616	36.34
568.068	40.85
568.52	37.03
568.972	40.53
569.424	37.08
569.876	39.55
570.327	36.31
570.779	41.15
571.231	38.79
571.682	38.62
572.134	38.93
572.586	36.83
573.037	38.42
573.489	38.79
573.941	37.32
574.392	39.19
574.844	39.16
575.295	39.31
575.746	38.04
576.198	42.08
576.649	41.38
577.101	40.58
577.552	39.59
578.003	37.75
578.454	40.59
578.906	37.87
579.357	39.58
579.808	41.17
580.259	42.12
580.71	39
581.161	42.07
581.612	40.82
582.064	38.87
582.515	41.36
582.965	40.32
583.416	40.63
583.867	41.84
584.318	40.14
584.769	39.27
585.22	41.62
585.671	41.55
586.122	41.57
586.572	40.08
587.023	40.55
587.474	41.29
587.924	42.36
588.375	40.58
588.826	40.97
589.276	40.85
589.727	41.45
590.177	41.67
590.628	41.86
591.078	40.19
591.529	43.36
591.979	42.93
592.429	44.07
592.88	44.57
593.33	43.01
593.78	41
594.231	41.99
594.681	43.49
595.131	42.95
595.581	43.7
596.031	43.37
596.481	41.4
596.932	41.42
597.382	42.06
597.832	40.88
598.282	43.12
598.732	44.51
599.182	43.09
599.632	43.33
600.081	40.86
600.531	41.94
600.981	43.82
601.431	41.13
601.881	43.21
602.33	43
602.78	42.53
603.23	44.35
603.679	43.78
604.129	45.26
604.579	42.87
605.028	42.92
605.478	40.78
605.927	43.63
606.377	42.6
606.826	43.41
607.276	41.95
607.725	44.09
608.175	45.32
608.624	43.18
609.073	44.08
609.522	43.16
609.972	44.42
610.421	42.49
610.87	44.29
611.319	43.6
611.768	44.59
612.218	44.02
612.667	42.93
613.116	43.75
613.565	42.35
614.014	42.97
614.463	42.71
614.912	45.15
615.361	42.89
615.81	43.87
616.258	44.14
616.707	44.18
617.156	43.26
617.605	45.19
618.054	43.79
618.502	42.29
618.951	43.55
619.4	45.51
619.848	43.1
620.297	41.76
620.745	44.02
621.194	43.25
621.642	43.39
622.091	43.71
622.539	43.33
622.988	43.88
623.436	43.68
623.885	43.38
624.333	45.54
624.781	44.66
625.23	44.52
625.678	44.91
626.126	44.15
626.574	43.13
627.022	44.01
627.471	43.84
627.919	43.79
628.367	43.93
628.815	44.15
629.263	42.61
629.711	44.84
630.159	42.92
630.607	44.53
631.055	44.99
631.503	43.14
631.95	42.68
632.398	43.27
632.846	46.1
633.294	43.17
633.742	45.41
634.189	44.4
634.637	45.58
635.085	44.8
635.532	45.76
635.98	42.84
636.427	44.25
636.875	45.14
637.323	43.98
637.77	44.17
638.217	44.29
638.665	43.1
639.112	44.66
639.56	43.81
640.007	44.36
640.454	43.96
640.902	43.78
641.349	43.47
641.796	43.47
642.243	43.51
642.69	44.2
643.138	42.91
643.585	43.94
644.032	43.88
644.479	43.11
644.926	44.17
645.373	42.99
645.82	42.64
646.267	45.79
646.714	44.17
647.161	42.4
647.607	44.7
648.054	41.32
648.501	43.41
648.948	44.28
649.395	43.58
649.841	44.24
650.288	44.53
650.735	45.56
651.181	44.1
651.628	43.04
652.075	44.61
652.521	43.9
652.968	44.46
653.414	43.43
653.861	43.65
654.307	45.73
654.753	45.26
655.2	43.84
655.646	44.82
656.092	44.9
656.539	44.01
656.985	44.54
657.431	44.76
657.877	42.06
658.324	43.23
658.77	44.81
659.216	42.16
659.662	45.02
660.108	45.25
660.554	45.06
661	43.1
661.446	45.21
661.892	44.14
662.338	43
662.784	43.9
663.23	43.33
663.675	43.22
664.121	44.45
664.567	44.32
665.013	44.3
665.458	44.01
665.904	45.27
666.35	43.31
666.795	44.51
667.241	43.93
667.687	43.89
668.132	44.43
668.578	43.23
669.023	42.36
669.469	43.28
669.914	44.83
670.359	44.63
670.805	43.93
671.25	44.42
671.695	44.88
672.141	44.24
672.586	43.69
673.031	43.84
673.476	43.86
673.922	44.98
674.367	44.02
674.812	42.85
675.257	43.64
675.702	43.29
676.147	43.95
676.592	45.15
677.037	43.71
677.482	44.2
677.927	44.68
678.372	43.88
678.817	43.16
679.261	44.22
679.706	43.99
680.151	43.87
680.596	43.58
681.04	45.13
681.485	44.01
681.93	43.23
682.374	44.85
682.819	43.34
683.264	43.95
683.708	43.86
684.153	42.74
684.597	43.85
685.042	44.32
685.486	43.22
685.93	42.83
686.375	43.56
686.819	43.5
687.263	43.03
687.708	44.63
688.152	43.96
688.596	42.67
689.04	42.12
689.485	43.74
689.929	43.47
690.373	43.12
690.817	43.32
691.261	43.36
691.705	43.55
692.149	45.01
692.593	43
693.037	44.36
693.481	45.08
693.925	44.36
694.369	43.43
694.812	42.83
695.256	42.25
695.7	43.06
696.144	43.14
696.587	42.54
697.031	43.55
697.475	43.14
697.918	42.43
698.362	42.97
698.806	43.96
699.249	44.45
699.693	45.51
700.136	42.09
700.58	43.18
701.023	42.64
701.466	43.5
701.91	44.74
702.353	42.92
702.796	44.2
703.24	44.89
703.683	43.98
704.126	43.09
704.569	43.71
705.013	42.27
705.456	42.95
705.899	42.49
706.342	43.07
706.785	42.99
707.228	44
707.671	44.52
708.114	43.18
708.557	43.31
709	42.18
709.443	42.96
709.886	44.54
710.328	41.3
710.771	43.52
711.214	44.1
711.657	43.04
712.099	43.55
712.542	43.4
712.985	43.25
713.427	42.52
713.87	42.43
714.313	43.82
714.755	42.6
715.198	44.53
715.64	43.38
716.083	43.59
716.525	42.68
716.967	44.62
717.41	43.83
717.852	43.85
718.295	42.77
718.737	42.01
719.179	42.95
719.621	43.42
720.063	42.85
720.506	41.95
720.948	43.62
721.39	42.91
721.832	42.86
722.274	42.32
722.716	43.48
723.158	43.33
723.6	43.8
724.042	42.38
724.484	43.21
724.926	42.83
725.368	42.49
725.81	41.75
726.251	42.55
726.693	41.81
727.135	42.72
727.577	42.54
728.018	42.52
728.46	43.02
728.902	43.11
729.343	43.56
729.785	42.81
730.226	42.29
730.668	42.9
731.109	42.99
731.551	42.93
731.992	43.16
732.434	43.79
732.875	43.37
733.316	43.67
733.758	43.79
734.199	42.41
734.64	42.03
735.081	43.65
735.523	42.98
735.964	41.36
736.405	43.31
736.846	43.35
737.287	43.49
737.728	41.29
738.169	43.04
738.61	42.94
739.051	41.03
739.492	43.71
739.933	42.56
740.374	41.99
740.815	41.87
741.256	41.24
741.696	41.95
742.137	41.8
742.578	43.55
743.019	42.68
743.459	42.78
743.9	42.72
744.341	42.63
744.781	43.03
745.222	43.12
745.662	42.43
746.103	42.22
746.543	42.28
746.984	42.85
747.424	41.61
747.865	41.46
748.305	42.58
748.745	42.16
749.186	42.92
749.626	43.6
750.066	42.47
750.506	43.13
750.947	41.32
751.387	42.33
751.827	42.37
752.267	42.48
752.707	43.37
753.147	43.13
753.587	41.77
754.027	41.82
754.467	42.38
754.907	41.25
755.347	41.85
755.787	43.14
756.227	42.4
756.667	41.22
757.107	42.8
757.546	42.2
757.986	41.69
758.426	41.14
758.865	43.21
759.305	40.8
759.745	41.75
760.184	42.6
760.624	42.9
761.063	41.47
761.503	42.14
761.943	43.49
762.382	41.58
762.821	42.09
763.261	42.08
763.7	42.89
764.14	41.7
764.579	41.78
765.018	42.08
765.457	42.84
765.897	42.06
766.336	41.62
766.775	41.52
767.214	42.41
767.653	42.22
768.092	42.2
768.531	42.75
768.97	43.45
769.409	41.81
769.848	43.57
770.287	43.01
770.726	42.52
771.165	41.36
771.604	41.48
772.043	42.62
772.482	40.89
772.92	41.95
773.359	41.75
773.798	41.59
774.237	41.52
774.675	41.15
775.114	42.23
775.553	42.37
775.991	42.15
776.43	40.81
776.868	43.17
777.307	41.33
777.745	41.11
778.184	41.31
778.622	41.79
779.06	42.28
779.499	42.3
779.937	41.38
780.375	41.24
780.814	40.26
781.252	43.11
781.69	41.68
782.128	41.46
782.566	42.22
783.004	41.14
783.443	41.03
783.881	43.96
784.319	41.21
784.757	41.88
785.195	42.56
785.633	42.37
786.071	40.68
786.508	40.49
786.946	41.17
787.384	41.38
787.822	43.23
788.26	42.77
788.697	40.5
789.135	42.9
789.573	41.42
790.011	40.38
790.448	41.38
790.886	42.28
791.323	41.12
791.761	41.48
792.198	41.63
792.636	41.67
793.073	41.29
793.511	41.81
793.948	42.26
794.386	41.03
794.823	42.05
795.26	41.9
795.698	43.37
796.135	42.88
796.572	42.01
797.009	41.2
797.446	40.46
797.884	42.68
798.321	40.65
798.758	40.89
799.195	41.54
799.632	41.83
800.069	41.33
800.506	41.49
800.943	40.97
801.38	41.87
801.817	40.91
802.254	40.52
802.69	41.68
803.127	42.39
803.564	41.72
804.001	40.89
804.438	41.23
