Data from JCR0015_YellowVentral_Reflection_00002.txt Node
Date: Thu Jul 23 15:25:45 ACST 2020
User: Stacey Dix
Spectrometer: MAYP113282
Scans to average: 1
Trigger mode: 0
Integration Time (sec): 1.000000E-1
Electric dark correction enabled: true
Boxcar width: 0
XAxis mode: Wavelengths
Number of Pixels in Spectrum: 2068
>>>>>Begin Spectral Data<<<<<
198.791	-1766.67
199.266	966.67
199.74	61.9
200.215	109.52
200.69	17.27
201.164	48.44
201.639	42.72
202.114	55.56
202.588	39.92
203.063	43.86
203.537	84.95
204.012	56.55
204.486	27.58
204.961	55.56
205.435	31.17
205.909	44.56
206.384	41.04
206.858	101.37
207.332	42.03
207.807	14.19
208.281	38.2
208.755	7.51
209.229	33.84
209.703	59.76
210.177	44.73
210.651	42.58
211.126	29.2
211.6	32.36
212.074	56.78
212.548	36.48
213.021	42.79
213.495	65.31
213.969	3.64
214.443	54.52
214.917	92.43
215.391	55.82
215.864	44.64
216.338	61.38
216.812	64.87
217.286	67.83
217.759	38.16
218.233	36.6
218.706	61.46
219.18	48.21
219.654	61.47
220.127	60.23
220.6	49
221.074	53.77
221.547	52.09
222.021	56.42
222.494	77.68
222.967	45.61
223.441	74.57
223.914	54.35
224.387	66.14
224.86	61.79
225.334	66.95
225.807	68.57
226.28	58.31
226.753	62.77
227.226	61.18
227.699	66.74
228.172	64.58
228.645	65.4
229.118	61.35
229.591	62.36
230.064	65.31
230.537	60.45
231.01	60.14
231.482	54.38
231.955	72.81
232.428	53.04
232.901	71.99
233.373	66.07
233.846	61.14
234.319	61.35
234.791	62.69
235.264	64.94
235.736	54.11
236.209	59.94
236.681	60.6
237.154	51.6
237.626	62.68
238.099	55.51
238.571	60.69
239.044	54.6
239.516	55.45
239.988	57.2
240.46	54.41
240.933	54.75
241.405	51.71
241.877	57.38
242.349	53.59
242.821	53.67
243.293	54.88
243.765	51.37
244.237	54.79
244.71	53.42
245.181	54.43
245.653	61.59
246.125	52.6
246.597	49.99
247.069	50.79
247.541	55.05
248.013	49.42
248.485	47.86
248.956	47.35
249.428	45.77
249.9	46.92
250.371	47.21
250.843	51.41
251.315	47.12
251.786	46.34
252.258	48.11
252.729	47.53
253.201	47.82
253.672	45.19
254.144	44.31
254.615	44.9
255.086	44.13
255.558	47.74
256.029	42.29
256.5	48.03
256.972	43.09
257.443	46.95
257.914	46.25
258.385	47.37
258.856	42.3
259.327	45.8
259.799	47.33
260.27	46.33
260.741	45.5
261.212	44.22
261.683	45.85
262.154	48.84
262.624	47.08
263.095	44.55
263.566	43.45
264.037	43.61
264.508	45.33
264.979	42.58
265.449	44.33
265.92	45.43
266.391	44.54
266.861	44.7
267.332	44.28
267.803	43.72
268.273	46.07
268.744	44.89
269.214	46.47
269.685	44.03
270.155	41.66
270.626	45.46
271.096	43.85
271.566	45.3
272.037	45.23
272.507	44.07
272.977	47.38
273.448	45.93
273.918	47.68
274.388	44.91
274.858	47.11
275.328	47.12
275.798	47.56
276.268	46.65
276.738	45.97
277.208	46.45
277.678	43.57
278.148	40.86
278.618	42.35
279.088	43.61
279.558	44.45
280.028	47.21
280.498	44.65
280.968	42.4
281.437	44.19
281.907	45.67
282.377	45.5
282.847	40.32
283.316	42.06
283.786	45.53
284.255	44.77
284.725	40.51
285.194	43.09
285.664	44.87
286.133	40.93
286.603	41.26
287.072	44.23
287.542	43.46
288.011	43.6
288.48	40.71
288.95	41.57
289.419	42.47
289.888	43.36
290.357	41.45
290.827	45.05
291.296	43.31
291.765	41.88
292.234	42.35
292.703	43.53
293.172	44.3
293.641	41.93
294.11	42.96
294.579	43.03
295.048	39.86
295.517	40.93
295.986	41.12
296.455	42.55
296.923	42.07
297.392	44.29
297.861	42.43
298.33	41.28
298.798	42.66
299.267	42.21
299.736	43
300.204	43.2
300.673	40.23
301.141	42.24
301.61	44.26
302.079	42.9
302.547	42.9
303.015	40.67
303.484	43.05
303.952	39.78
304.421	40.19
304.889	38.94
305.357	41.13
305.825	40.76
306.294	43.72
306.762	41.6
307.23	39.98
307.698	41.73
308.166	39.66
308.634	40.95
309.103	40.6
309.571	40.34
310.039	42.04
310.507	41.79
310.975	39.46
311.442	40.21
311.91	41.87
312.378	42.08
312.846	42.03
313.314	39.31
313.782	40.3
314.249	39.96
314.717	37.97
315.185	41.8
315.652	37.4
316.12	40.91
316.588	39.9
317.055	42.09
317.523	39.75
317.99	40.26
318.458	39.46
318.925	41.32
319.393	37.78
319.86	39.9
320.328	40.99
320.795	40.01
321.262	40.81
321.73	40.83
322.197	38.43
322.664	40.03
323.131	39.43
323.598	39.07
324.066	40.7
324.533	39.78
325	40.08
325.467	42.61
325.934	41.13
326.401	45.19
326.868	45.92
327.335	42.12
327.802	43.07
328.269	41.29
328.735	44.51
329.202	43.94
329.669	46.7
330.136	48.23
330.603	48.21
331.069	51.41
331.536	45.85
332.003	49.65
332.469	49.58
332.936	50.67
333.402	46.51
333.869	50.5
334.336	51.19
334.802	49.67
335.268	49.9
335.735	50.19
336.201	51.15
336.668	52.08
337.134	50.94
337.6	48.22
338.067	47.94
338.533	50.59
338.999	51.38
339.465	51.4
339.931	51.98
340.398	54.59
340.864	51.46
341.33	49.19
341.796	49.7
342.262	51.07
342.728	50.56
343.194	51.67
343.66	50.82
344.126	49.36
344.592	48.87
345.057	49.84
345.523	50.74
345.989	47.79
346.455	51.51
346.921	50.12
347.386	48.97
347.852	48.94
348.318	51.34
348.783	47.66
349.249	47.87
349.714	46.91
350.18	50.26
350.645	49.93
351.111	46.83
351.576	46.29
352.042	47.23
352.507	46.49
352.973	46.12
353.438	45.73
353.903	46.03
354.369	47
354.834	45.96
355.299	47.43
355.764	45.71
356.229	46.84
356.695	47.12
357.16	46.82
357.625	45.14
358.09	45.18
358.555	45.43
359.02	47.85
359.485	42.7
359.95	45.91
360.415	47.07
360.879	49.36
361.344	44.9
361.809	45.41
362.274	44.67
362.739	44.94
363.203	46.87
363.668	43.73
364.133	43.47
364.597	45.46
365.062	44.6
365.527	45.96
365.991	40.99
366.456	45.62
366.92	46.18
367.385	43.09
367.849	40.64
368.314	42.55
368.778	43.45
369.242	43.76
369.707	39.9
370.171	44.2
370.635	42.62
371.1	42.33
371.564	44.12
372.028	42.4
372.492	45.83
372.956	41.09
373.42	43.62
373.884	43.48
374.348	42.89
374.812	40.79
375.276	42.82
375.74	43.05
376.204	39.75
376.668	43.88
377.132	40.55
377.596	43.4
378.06	40.79
378.524	40.52
378.987	41.21
379.451	42.43
379.915	39.53
380.378	40.06
380.842	39.09
381.306	39.88
381.769	39.99
382.233	38.92
382.696	42.55
383.16	38.35
383.623	40.4
384.087	40.54
384.55	39.14
385.014	38.7
385.477	36.94
385.94	39.26
386.404	35.89
386.867	41.04
387.33	41.41
387.793	41.04
388.256	37.84
388.72	34.93
389.183	39.14
389.646	38.64
390.109	39.29
390.572	35.78
391.035	39.35
391.498	36.67
391.961	37.48
392.424	36.88
392.887	36.38
393.35	37.34
393.812	39.01
394.275	36.36
394.738	37.6
395.201	37.41
395.664	36.62
396.126	36.83
396.589	36.23
397.052	35.77
397.514	33.95
397.977	34.85
398.439	37.47
398.902	35.28
399.364	36.29
399.827	34.31
400.289	35.25
400.752	34.5
401.214	32.57
401.676	34.33
402.139	33.51
402.601	35.34
403.063	34.07
403.525	33.62
403.988	32.21
404.45	35.6
404.912	32.57
405.374	32.81
405.836	32.46
406.298	36.39
406.76	33.25
407.222	32.62
407.684	33.61
408.146	32.38
408.608	31.42
409.07	32.8
409.532	30.48
409.994	31.58
410.456	32.61
410.917	34.09
411.379	33.99
411.841	32.08
412.303	31.73
412.764	34.21
413.226	31.74
413.687	31.67
414.149	34.17
414.611	32.68
415.072	31.91
415.534	32.1
415.995	31.11
416.457	33.93
416.918	31.71
417.379	32.42
417.841	32.26
418.302	35.49
418.763	32.25
419.225	33.75
419.686	32.03
420.147	32.57
420.608	33.13
421.069	33.56
421.53	32.59
421.991	34.01
422.453	31.29
422.914	33.22
423.375	32.27
423.836	33.67
424.297	32.44
424.757	33.87
425.218	32.41
425.679	35.54
426.14	33.12
426.601	34.61
427.062	32.47
427.522	33.11
427.983	31.47
428.444	30.06
428.904	33.46
429.365	34.51
429.826	35.89
430.286	32.83
430.747	34.26
431.207	31.93
431.668	32.38
432.128	35.28
432.589	33.04
433.049	32.83
433.509	33.44
433.97	32.94
434.43	33.59
434.89	32.5
435.351	34.11
435.811	31.81
436.271	34.81
436.731	32.14
437.191	31.22
437.651	33.52
438.112	34.14
438.572	34.7
439.032	32.79
439.492	34.22
439.952	33.79
440.412	34.6
440.871	33.06
441.331	33.36
441.791	34.97
442.251	31.94
442.711	34.38
443.171	31.89
443.63	34.12
444.09	37.65
444.55	32.16
445.009	34.66
445.469	35.47
445.929	30.94
446.388	35.39
446.848	35.88
447.307	32.93
447.767	34.21
448.226	33.28
448.686	33.86
449.145	35.95
449.604	34.95
450.064	36.22
450.523	34.79
450.982	33.6
451.442	36.32
451.901	37.04
452.36	36.36
452.819	35.36
453.278	36.77
453.737	39.27
454.197	36.4
454.656	36.24
455.115	36.04
455.574	36.59
456.033	35.96
456.492	38.33
456.95	34.52
457.409	36.92
457.868	38.29
458.327	37.91
458.786	36.74
459.245	35.91
459.703	37.37
460.162	39.2
460.621	38.57
461.079	37.16
461.538	38.32
461.997	38.96
462.455	35.44
462.914	37.31
463.372	36.88
463.831	34.5
464.289	36.03
464.748	39.83
465.206	39.44
465.664	40.4
466.123	40.75
466.581	37.42
467.039	36.23
467.497	39.98
467.956	37.19
468.414	39.45
468.872	38.53
469.33	41.88
469.788	40.3
470.246	38.48
470.704	42.8
471.162	41.2
471.62	43.71
472.078	41.62
472.536	45.59
472.994	43.96
473.452	41.59
473.91	41.77
474.368	43.14
474.826	41.13
475.283	42.62
475.741	45.49
476.199	43.88
476.656	43.85
477.114	42
477.572	47.12
478.029	44.59
478.487	43.91
478.944	44.92
479.402	44.38
479.859	48.08
480.317	47.08
480.774	46.37
481.232	47.98
481.689	51.82
482.146	47.26
482.604	50.1
483.061	47.93
483.518	51.69
483.975	49.99
484.433	46.68
484.89	48.36
485.347	53.35
485.804	49.77
486.261	51.23
486.718	50.26
487.175	48.72
487.632	55.6
488.089	54.52
488.546	49.78
489.003	49.83
489.46	54.96
489.917	52.5
490.373	55.19
490.83	56.5
491.287	58.39
491.744	53.4
492.2	55.54
492.657	54.67
493.114	55.03
493.57	55.66
494.027	54.87
494.484	56.64
494.94	54.34
495.397	58.76
495.853	57.46
496.31	57.62
496.766	52.52
497.222	59.34
497.679	58.19
498.135	57.27
498.591	57.07
499.048	56.08
499.504	59.29
499.96	57.57
500.416	59.33
500.872	56.03
501.329	59.6
501.785	59.11
502.241	58.67
502.697	58.54
503.153	60.75
503.609	59.97
504.065	59.85
504.521	58.73
504.977	61.69
505.432	59.74
505.888	60.67
506.344	61.89
506.8	58.68
507.256	61.23
507.711	63.2
508.167	62.15
508.623	60.47
509.078	60.31
509.534	66.98
509.99	63.31
510.445	65.85
510.901	60.24
511.356	65.45
511.812	61.96
512.267	57.43
512.722	62.95
513.178	64.89
513.633	61.59
514.089	63.01
514.544	63.28
514.999	62.86
515.454	65
515.91	63.38
516.365	62.73
516.82	63.04
517.275	63.62
517.73	61.89
518.185	64.02
518.64	64.41
519.095	62.36
519.55	60.99
520.005	62.55
520.46	63.55
520.915	64.77
521.37	62.49
521.825	65.18
522.28	64.45
522.734	59.05
523.189	65.53
523.644	61.99
524.099	61.67
524.553	62.35
525.008	63.9
525.462	62.25
525.917	63.27
526.372	57.52
526.826	64.49
527.281	64.47
527.735	59.33
528.19	66.03
528.644	62.09
529.098	63.17
529.553	61.66
530.007	58.77
530.461	64.76
530.916	65.62
531.37	67.41
531.824	67.48
532.278	62.45
532.732	63.91
533.186	63.14
533.641	64.83
534.095	63.89
534.549	63.77
535.003	65.3
535.457	65.51
535.911	61.72
536.365	64.77
536.818	62.41
537.272	66.26
537.726	62.93
538.18	66.76
538.634	65.41
539.087	63.12
539.541	66.85
539.995	64.12
540.449	65.61
540.902	64.37
541.356	66.57
541.809	66.38
542.263	64.36
542.716	65.46
543.17	67.5
543.623	64.35
544.077	66.01
544.53	67.28
544.984	66.01
545.437	67.23
545.89	66.3
546.344	65.13
546.797	66.92
547.25	67.15
547.703	65.98
548.157	65.39
548.61	62.03
549.063	64.16
549.516	66.55
549.969	66.84
550.422	66.63
550.875	66.28
551.328	62.87
551.781	66.11
552.234	61.05
552.687	67.27
553.14	66.13
553.592	69.33
554.045	66.11
554.498	66.44
554.951	67.59
555.404	68.09
555.856	66.99
556.309	70.23
556.762	66.54
557.214	66.94
557.667	68.69
558.119	67.88
558.572	70.15
559.024	70.55
559.477	65.08
559.929	67.66
560.382	66.84
560.834	65.04
561.286	66.19
561.739	68.95
562.191	65.56
562.643	68.57
563.095	67.61
563.548	67.67
564	68.12
564.452	67.97
564.904	67.29
565.356	68.84
565.808	66.75
566.26	69.77
566.712	66.07
567.164	67.43
567.616	65.93
568.068	65.99
568.52	67
568.972	66.66
569.424	69.68
569.876	69.51
570.327	66.66
570.779	68.29
571.231	65.21
571.682	67.16
572.134	68.01
572.586	68.62
573.037	68.76
573.489	68.18
573.941	67.86
574.392	64.59
574.844	69.12
575.295	68.39
575.746	69.52
576.198	67.04
576.649	68.37
577.101	67.69
577.552	70
578.003	67.41
578.454	67.78
578.906	68.06
579.357	67.76
579.808	67.77
580.259	70.93
580.71	66.82
581.161	68.68
581.612	68.63
582.064	67.16
582.515	69.52
582.965	70.69
583.416	70.21
583.867	70.97
584.318	69.29
584.769	67.37
585.22	69.52
585.671	69.22
586.122	68.47
586.572	69.69
587.023	68.54
587.474	70.97
587.924	70.15
588.375	68.03
588.826	70.57
589.276	68.07
589.727	72.32
590.177	73.05
590.628	71.1
591.078	73.41
591.529	69.4
591.979	75.19
592.429	72.18
592.88	72.28
593.33	74.46
593.78	73
594.231	71.65
594.681	72.55
595.131	72.55
595.581	71
596.031	69.41
596.481	70.28
596.932	68.76
597.382	71.03
597.832	70.17
598.282	71.82
598.732	70.32
599.182	73.52
599.632	72.93
600.081	68.46
600.531	72.12
600.981	71.67
601.431	71.61
601.881	70.83
602.33	70.74
602.78	71.14
603.23	70.48
603.679	72.9
604.129	70
604.579	72.31
605.028	72.26
605.478	71.87
605.927	75.16
606.377	69.63
606.826	70.08
607.276	73.02
607.725	74.57
608.175	73.01
608.624	70.56
609.073	72.29
609.522	73.68
609.972	69.74
610.421	74.04
610.87	72.59
611.319	71.04
611.768	70.26
612.218	72.54
612.667	71.64
613.116	72.48
613.565	70.89
614.014	69.63
614.463	73.11
614.912	70.71
615.361	71.09
615.81	73.04
616.258	71.54
616.707	72.04
617.156	73.45
617.605	73.26
618.054	71.68
618.502	71.74
618.951	72.82
619.4	72.22
619.848	73.4
620.297	71.91
620.745	71.21
621.194	70.12
621.642	72.88
622.091	71.89
622.539	70.78
622.988	70.88
623.436	72.08
623.885	69.8
624.333	72.24
624.781	71.52
625.23	71.43
625.678	72.45
626.126	71.55
626.574	73.7
627.022	71.13
627.471	72.84
627.919	72.11
628.367	72.19
628.815	70.78
629.263	71.53
629.711	72.22
630.159	72.22
630.607	72.22
631.055	73.6
631.503	72.22
631.95	73.63
632.398	71.54
632.846	73.18
633.294	73.39
633.742	73.35
634.189	72.7
634.637	72.41
635.085	72.09
635.532	74.47
635.98	71.95
636.427	72.49
636.875	75.2
637.323	71.43
637.77	70.21
638.217	73.99
638.665	72.36
639.112	71.79
639.56	73.15
640.007	74.8
640.454	73.31
640.902	71.49
641.349	73.63
641.796	70.32
642.243	73.28
642.69	72.23
643.138	72.34
643.585	72.66
644.032	69.6
644.479	72.14
644.926	71.19
645.373	71.57
645.82	72.41
646.267	71.25
646.714	72.15
647.161	72.2
647.607	72.39
648.054	72.76
648.501	74.32
648.948	71.44
649.395	72.71
649.841	71.3
650.288	73.7
650.735	73.44
651.181	72.3
651.628	73.29
652.075	72.44
652.521	73.03
652.968	72.14
653.414	70.39
653.861	74.9
654.307	71.75
654.753	70.73
655.2	72.3
655.646	71.73
656.092	70.2
656.539	72.5
656.985	71.35
657.431	71.76
657.877	72.44
658.324	70.91
658.77	72.76
659.216	72.78
659.662	72.45
660.108	73.53
660.554	74.59
661	71.67
661.446	70.27
661.892	73.54
662.338	73.65
662.784	69.64
663.23	72.33
663.675	73.08
664.121	73.75
664.567	74.32
665.013	72.03
665.458	73.43
665.904	71.81
666.35	72.52
666.795	72.05
667.241	73.19
667.687	73.53
668.132	72.07
668.578	70.98
669.023	71.27
669.469	72.38
669.914	72.83
670.359	73.36
670.805	71.69
671.25	70.92
671.695	72.8
672.141	70.37
672.586	74.3
673.031	73.33
673.476	72.38
673.922	71.34
674.367	73.34
674.812	73.28
675.257	72.07
675.702	72.79
676.147	73.37
676.592	72.1
677.037	73.71
677.482	73.08
677.927	72.91
678.372	72.99
678.817	73.05
679.261	73.34
679.706	74.61
680.151	73.23
680.596	72.63
681.04	72.09
681.485	70.88
681.93	74.34
682.374	73.19
682.819	73.17
683.264	71.88
683.708	72.94
684.153	71.48
684.597	74.2
685.042	72.57
685.486	71.03
685.93	74.59
686.375	70.66
686.819	71.44
687.263	71.77
687.708	70.72
688.152	73.14
688.596	72.44
689.04	73.13
689.485	71.54
689.929	73.26
690.373	71.07
690.817	70.56
691.261	71.43
691.705	73.08
692.149	72.61
692.593	73.3
693.037	71.75
693.481	73.03
693.925	73.36
694.369	72.33
694.812	71.67
695.256	71.56
695.7	72.6
696.144	72.92
696.587	71.54
697.031	73.08
697.475	69.07
697.918	72.37
698.362	71.16
698.806	73.38
699.249	72.3
699.693	70.9
700.136	70.71
700.58	72.31
701.023	71.18
701.466	71.91
701.91	71.73
702.353	70.85
702.796	70.77
703.24	74.11
703.683	71.05
704.126	71.66
704.569	70.74
705.013	71.26
705.456	69.8
705.899	71.75
706.342	73.08
706.785	72.88
707.228	73.07
707.671	69.82
708.114	70.49
708.557	70.91
709	71.67
709.443	69.64
709.886	69.97
710.328	72.06
710.771	72.3
711.214	71.95
711.657	71.77
712.099	71.2
712.542	70.45
712.985	71.42
713.427	70.53
713.87	70.33
714.313	70.89
714.755	71.44
715.198	72.8
715.64	69.01
716.083	70.7
716.525	71.44
716.967	70.01
717.41	70.47
717.852	70.38
718.295	70.11
718.737	72.24
719.179	71.47
719.621	72.55
720.063	72.67
720.506	71.6
720.948	70
721.39	71.99
721.832	70.35
722.274	70
722.716	69.68
723.158	71.82
723.6	70.75
724.042	70.01
724.484	70.7
724.926	71.12
725.368	69.61
725.81	71.82
726.251	70.47
726.693	70.81
727.135	72.06
727.577	70.1
728.018	70.81
728.46	69.6
728.902	71.16
729.343	70.73
729.785	69.59
730.226	70.75
730.668	68.67
731.109	70.55
731.551	71.08
731.992	70.41
732.434	70.89
732.875	69.96
733.316	70.87
733.758	68.47
734.199	69.7
734.64	70.63
735.081	72.05
735.523	69.18
735.964	72.31
736.405	70.64
736.846	70.31
737.287	70.25
737.728	69.54
738.169	69.24
738.61	69.54
739.051	69.94
739.492	71.16
739.933	71.45
740.374	67.46
740.815	70.74
741.256	69.41
741.696	70.44
742.137	70.6
742.578	70.63
743.019	68.95
743.459	70.83
743.9	68.93
744.341	70.68
744.781	71
745.222	71.09
745.662	69.75
746.103	71.51
746.543	68.97
746.984	69.64
747.424	68.07
747.865	70.65
748.305	70.9
748.745	68.6
749.186	68.48
749.626	69.84
750.066	69.49
750.506	71.93
750.947	68.98
751.387	69.73
751.827	69.89
752.267	70.64
752.707	68.94
753.147	67.13
753.587	69.59
754.027	71.94
754.467	71.01
754.907	67.9
755.347	68.24
755.787	69.89
756.227	68.09
756.667	68.83
757.107	68.88
757.546	69.67
757.986	68.18
758.426	70.52
758.865	68.04
759.305	70.71
759.745	69.01
760.184	69.96
760.624	67.99
761.063	69.82
761.503	67.95
761.943	68.97
762.382	69.03
762.821	68.4
763.261	67.68
763.7	69.08
764.14	69.02
764.579	69.49
765.018	68.27
765.457	68.18
765.897	68.84
766.336	67.56
766.775	68.56
767.214	68.66
767.653	68.11
768.092	68.25
768.531	68.18
768.97	68.91
769.409	69.44
769.848	68.11
770.287	69.84
770.726	68.38
771.165	69.45
771.604	68.28
772.043	67.49
772.482	68.76
772.92	67.61
773.359	68.93
773.798	67.47
774.237	68.84
774.675	68.61
775.114	69.1
775.553	69.36
775.991	68.42
776.43	69.91
776.868	68.96
777.307	68.13
777.745	69.27
778.184	68.21
778.622	68.3
779.06	68.24
779.499	68.8
779.937	67.31
780.375	68.03
780.814	67.66
781.252	67.76
781.69	68.68
782.128	68.46
782.566	68.68
783.004	66.81
783.443	68.64
783.881	67.33
784.319	69.04
784.757	68.94
785.195	67.99
785.633	67.6
786.071	68.71
786.508	67.79
786.946	68
787.384	68.31
787.822	68.85
788.26	66.61
788.697	67.58
789.135	68.34
789.573	67.9
790.011	67.78
790.448	67.17
790.886	67.75
791.323	67.2
791.761	68.27
792.198	67.06
792.636	66.58
793.073	68.31
793.511	66.89
793.948	67.41
794.386	68.52
794.823	67.32
795.26	66.64
795.698	66.87
796.135	67.04
796.572	67.2
797.009	68.53
797.446	66.83
797.884	69.15
798.321	67.65
798.758	66.87
799.195	67.86
799.632	67.35
800.069	66.98
800.506	67.68
800.943	66.43
801.38	67.79
801.817	67.17
802.254	65.87
802.69	67.6
803.127	66.78
803.564	66.38
804.001	66.33
804.438	66.53
804.874	66.09
