Data from JCR0019_Black2_Reflection_00002.txt Node
Date: Thu Jul 23 16:45:56 ACST 2020
User: Stacey Dix
Spectrometer: MAYP113282
Scans to average: 1
Trigger mode: 0
Integration Time (sec): 1.000000E-1
Electric dark correction enabled: true
Boxcar width: 0
XAxis mode: Wavelengths
Number of Pixels in Spectrum: 2068
>>>>>Begin Spectral Data<<<<<
198.791	-250
199.266	-500
199.74	100
200.215	0
200.69	9.59
201.164	-1.41
201.639	6.59
202.114	21.43
202.588	9.68
203.063	-5.81
203.537	0.91
204.012	17.95
204.486	7.07
204.961	9.24
205.435	17.31
205.909	18.55
206.384	-12.03
206.858	12.15
207.332	1.57
207.807	-1.68
208.281	14.93
208.755	2.22
209.229	-10.53
209.703	20.26
210.177	4.44
210.651	3.5
211.126	22.96
211.6	9.87
212.074	11.49
212.548	21.21
213.021	10.46
213.495	30.5
213.969	14.38
214.443	17.42
214.917	13.87
215.391	20.83
215.864	2.33
216.338	23.2
216.812	18.75
217.286	22.61
217.759	29.71
218.233	19.34
218.706	19.2
219.18	23.98
219.654	17.87
220.127	30.66
220.6	31.68
221.074	20.34
221.547	21.93
222.021	24.45
222.494	24.6
222.967	25.13
223.441	18.16
223.914	28.84
224.387	23.63
224.86	31.58
225.334	23.9
225.807	31.29
226.28	24.59
226.753	27.47
227.226	28.23
227.699	24.96
228.172	32.2
228.645	28.89
229.118	27.03
229.591	26.73
230.064	27.72
230.537	31.56
231.01	29.52
231.482	29.47
231.955	33.24
232.428	31.71
232.901	27.05
233.373	31.2
233.846	27.6
234.319	29.32
234.791	28.6
235.264	29.09
235.736	29.15
236.209	28.48
236.681	26.39
237.154	29.21
237.626	29.67
238.099	27.73
238.571	27.93
239.044	29.75
239.516	27.87
239.988	28.3
240.46	26.75
240.933	27.5
241.405	28.03
241.877	28.79
242.349	28.51
242.821	27.9
243.293	26.97
243.765	27.79
244.237	27.45
244.71	28.55
245.181	26.68
245.653	26.62
246.125	26.88
246.597	27.22
247.069	26.18
247.541	27.26
248.013	24.17
248.485	26.76
248.956	25.71
249.428	24.23
249.9	23.79
250.371	26.18
250.843	24.07
251.315	24.53
251.786	27.13
252.258	25.42
252.729	25.57
253.201	25.22
253.672	24.43
254.144	25.15
254.615	24.6
255.086	25.3
255.558	24.07
256.029	24.84
256.5	26.13
256.972	25.42
257.443	24.73
257.914	25.21
258.385	24.62
258.856	24.53
259.327	25.2
259.799	24.72
260.27	25.3
260.741	26.14
261.212	25.08
261.683	24.74
262.154	25.83
262.624	25.88
263.095	24.6
263.566	25.9
264.037	24.43
264.508	24.91
264.979	26.37
265.449	25.82
265.92	25.01
266.391	25.16
266.861	25.57
267.332	24.9
267.803	25.69
268.273	25.49
268.744	26.02
269.214	25.6
269.685	24.4
270.155	24.15
270.626	26.68
271.096	26.31
271.566	26.06
272.037	25.33
272.507	26.09
272.977	24.51
273.448	25
273.918	26.84
274.388	26.19
274.858	24.31
275.328	24.89
275.798	25.96
276.268	24.36
276.738	25.95
277.208	24.53
277.678	25.93
278.148	25.42
278.618	24.31
279.088	25.2
279.558	25.57
280.028	24.59
280.498	24.95
280.968	24.9
281.437	24.7
281.907	23.84
282.377	26.98
282.847	24.59
283.316	25.79
283.786	26.67
284.255	25.13
284.725	24.62
285.194	24.29
285.664	25.57
286.133	25.4
286.603	25.58
287.072	25.74
287.542	25.44
288.011	25.17
288.48	24.91
288.95	25.74
289.419	25.48
289.888	24.6
290.357	25.17
290.827	25.46
291.296	24.19
291.765	25.45
292.234	24.3
292.703	24.24
293.172	24.04
293.641	25.05
294.11	23.86
294.579	24.66
295.048	24.12
295.517	24.83
295.986	25.34
296.455	25.11
296.923	24.33
297.392	23.72
297.861	23.96
298.33	24.11
298.798	24.22
299.267	23.8
299.736	23.23
300.204	22.63
300.673	23.1
301.141	24.29
301.61	23.67
302.079	23.18
302.547	23.05
303.015	22.98
303.484	23.13
303.952	23.96
304.421	23.16
304.889	23.67
305.357	22.75
305.825	22.88
306.294	21.07
306.762	23.35
307.23	22.41
307.698	22.5
308.166	21.48
308.634	21.64
309.103	20.47
309.571	22.53
310.039	22.21
310.507	22.07
310.975	21.23
311.442	21.19
311.91	21.7
312.378	21.11
312.846	21.65
313.314	22.4
313.782	20.59
314.249	21.14
314.717	22.06
315.185	21.15
315.652	20.02
316.12	21.56
316.588	22.47
317.055	20.85
317.523	20.96
317.99	20.91
318.458	21.53
318.925	20.4
319.393	20.13
319.86	19.89
320.328	20.42
320.795	21.4
321.262	20.74
321.73	20.25
322.197	19.35
322.664	20.6
323.131	20.66
323.598	19.37
324.066	20.46
324.533	18.54
325	18.91
325.467	19.48
325.934	18.68
326.401	18.3
326.868	18.07
327.335	18.8
327.802	19.62
328.269	18.49
328.735	18.43
329.202	19.2
329.669	18.37
330.136	18.87
330.603	18.27
331.069	17.92
331.536	18.65
332.003	19.22
332.469	18.1
332.936	18.56
333.402	18.47
333.869	18.81
334.336	17.77
334.802	18.6
335.268	18.44
335.735	17.96
336.201	17.12
336.668	18.9
337.134	17.37
337.6	17.82
338.067	17.13
338.533	16.72
338.999	17.09
339.465	16.22
339.931	17.35
340.398	17.77
340.864	17.33
341.33	17.02
341.796	17.37
342.262	16.98
342.728	17.17
343.194	16.8
343.66	17.36
344.126	16.78
344.592	15.64
345.057	16.55
345.523	16.73
345.989	16.5
346.455	15.78
346.921	16.56
347.386	16.02
347.852	16.15
348.318	16.12
348.783	15.67
349.249	16.64
349.714	16.6
350.18	15.65
350.645	15.94
351.111	15.92
351.576	15.72
352.042	16.76
352.507	15.9
352.973	15.4
353.438	16.31
353.903	15.09
354.369	15.83
354.834	16.5
355.299	15.48
355.764	15.86
356.229	15.78
356.695	15.48
357.16	15.73
357.625	15.07
358.09	15.94
358.555	16.2
359.02	15.86
359.485	15.96
359.95	15.56
360.415	15.07
360.879	15.63
361.344	14.36
361.809	15.18
362.274	15.16
362.739	14.26
363.203	16.48
363.668	15.06
364.133	14.26
364.597	15.65
365.062	14.89
365.527	14.12
365.991	14.33
366.456	15.44
366.92	15.5
367.385	15.19
367.849	14.23
368.314	14.27
368.778	14.25
369.242	14.29
369.707	14.09
370.171	15.76
370.635	15.42
371.1	13.97
371.564	14.96
372.028	14.44
372.492	14.76
372.956	14.84
373.42	13.39
373.884	14.87
374.348	15.15
374.812	14.69
375.276	15.06
375.74	14.85
376.204	15.12
376.668	14.27
377.132	15.01
377.596	14.3
378.06	14.69
378.524	14.52
378.987	14.2
379.451	15.01
379.915	14.31
380.378	14.7
380.842	14.03
381.306	14.02
381.769	14.09
382.233	14.54
382.696	14.1
383.16	14.44
383.623	14.69
384.087	14.02
384.55	14.4
385.014	13.89
385.477	13.88
385.94	14.76
386.404	14.39
386.867	13.67
387.33	13.84
387.793	13.55
388.256	14.46
388.72	14.3
389.183	13.94
389.646	14.02
390.109	12.95
390.572	15.02
391.035	14.04
391.498	13.64
391.961	14.52
392.424	14.53
392.887	13.72
393.35	14.27
393.812	13.89
394.275	13.31
394.738	14.69
395.201	13.19
395.664	14.08
396.126	13.71
396.589	14.54
397.052	14.32
397.514	14.52
397.977	13.98
398.439	13.77
398.902	13.78
399.364	13.16
399.827	13.53
400.289	14.43
400.752	14.82
401.214	13.38
401.676	14.12
402.139	14.21
402.601	13.26
403.063	13.81
403.525	13.59
403.988	12.9
404.45	13.41
404.912	13.47
405.374	13.31
405.836	13.95
406.298	14.57
406.76	13.28
407.222	13.03
407.684	14.25
408.146	13.61
408.608	13.92
409.07	13.76
409.532	13.79
409.994	14.16
410.456	12.75
410.917	14.73
411.379	14.04
411.841	13.2
412.303	13.83
412.764	12.72
413.226	13.53
413.687	14.47
414.149	13.53
414.611	13.71
415.072	13.38
415.534	13.6
415.995	13.96
416.457	12.97
416.918	13.51
417.379	13.14
417.841	13.29
418.302	13.17
418.763	13.96
419.225	14.16
419.686	13.17
420.147	13.37
420.608	14.08
421.069	13.33
421.53	13.85
421.991	13.92
422.453	13.7
422.914	14.67
423.375	12.16
423.836	14.13
424.297	12.89
424.757	13.2
425.218	12.78
425.679	13.77
426.14	13.83
426.601	11.56
427.062	13.21
427.522	12.66
427.983	13.34
428.444	12.21
428.904	12.39
429.365	12.21
429.826	12.16
430.286	12.6
430.747	13.12
431.207	12.08
431.668	12.63
432.128	12.93
432.589	12.01
433.049	11.65
433.509	13.02
433.97	12.27
434.43	13.02
434.89	11.51
435.351	11.88
435.811	11.95
436.271	10.72
436.731	12.17
437.191	12.44
437.651	11.69
438.112	11.75
438.572	10.9
439.032	11.76
439.492	11.64
439.952	11.8
440.412	12.66
440.871	12.18
441.331	12.43
441.791	12.17
442.251	11.82
442.711	11.92
443.171	13.1
443.63	11.23
444.09	12.3
444.55	12.4
445.009	12.49
445.469	13.34
445.929	11.57
446.388	13.21
446.848	11.61
447.307	13.69
447.767	11.43
448.226	12.32
448.686	11.93
449.145	12.56
449.604	11.93
450.064	11.67
450.523	12.52
450.982	13.3
451.442	12.35
451.901	12.25
452.36	12.27
452.819	11.32
453.278	11.76
453.737	12.31
454.197	12.94
454.656	11.85
455.115	11.85
455.574	12.17
456.033	12.94
456.492	12.8
456.95	12.21
457.409	11.51
457.868	13.43
458.327	11.81
458.786	11.37
459.245	11.85
459.703	11.86
460.162	13.07
460.621	11.48
461.079	11.47
461.538	12.08
461.997	12.42
462.455	10.95
462.914	11.73
463.372	11.61
463.831	12.73
464.289	11.08
464.748	12.14
465.206	12.92
465.664	12.26
466.123	11.12
466.581	11.27
467.039	12.84
467.497	11.11
467.956	12.04
468.414	12.32
468.872	11.89
469.33	12.74
469.788	11.96
470.246	12.36
470.704	12.62
471.162	11.74
471.62	12.61
472.078	12.59
472.536	12.47
472.994	10.89
473.452	11.75
473.91	12.44
474.368	10.9
474.826	12.76
475.283	11.29
475.741	11.66
476.199	11.29
476.656	12.95
477.114	11.03
477.572	10.78
478.029	11.22
478.487	12.86
478.944	12.38
479.402	11.29
479.859	12.37
480.317	11.39
480.774	12.63
481.232	12.01
481.689	11.24
482.146	11.62
482.604	10.47
483.061	10.85
483.518	12.09
483.975	11.69
484.433	11.74
484.89	10.41
485.347	11.2
485.804	12.71
486.261	11.13
486.718	11.79
487.175	10.84
487.632	11.96
488.089	10.7
488.546	12.69
489.003	11.68
489.46	13.34
489.917	12.22
490.373	12.44
490.83	9.85
491.287	11.21
491.744	11.51
492.2	10.9
492.657	11.65
493.114	11.13
493.57	10.17
494.027	12.79
494.484	11.61
494.94	12.21
495.397	10.85
495.853	11.84
496.31	11.24
496.766	11.5
497.222	11.61
497.679	11.16
498.135	12.02
498.591	13.06
499.048	11.62
499.504	10.48
499.96	9.95
500.416	13.32
500.872	10.85
501.329	11.52
501.785	11.69
502.241	12.54
502.697	10.43
503.153	12.24
503.609	12.21
504.065	10.9
504.521	12.38
504.977	12.23
505.432	11.89
505.888	12.45
506.344	11.83
506.8	11.98
507.256	11.98
507.711	13.07
508.167	12.26
508.623	11.27
509.078	12.29
509.534	11.97
509.99	11.88
510.445	10.98
510.901	12.61
511.356	12.33
511.812	12.07
512.267	11.86
512.722	11.88
513.178	11.78
513.633	11.8
514.089	10.89
514.544	11.47
514.999	11.37
515.454	11.92
515.91	12.1
516.365	11.69
516.82	11.99
517.275	12.39
517.73	12.75
518.185	12.41
518.64	11.71
519.095	11.37
519.55	11.56
520.005	11.97
520.46	12.71
520.915	12.15
521.37	12.35
521.825	11.71
522.28	11.88
522.734	11.47
523.189	11.67
523.644	12.07
524.099	12.42
524.553	12.14
525.008	11.2
525.462	12.42
525.917	11.72
526.372	12.2
526.826	12.15
527.281	11.41
527.735	11.45
528.19	11.43
528.644	12.82
529.098	11.85
529.553	12.58
530.007	12.82
530.461	11.2
530.916	11.16
531.37	12.09
531.824	12.09
532.278	12.34
532.732	12.19
533.186	11.7
533.641	13.1
534.095	12.06
534.549	12.87
535.003	11.65
535.457	12.3
535.911	11.46
536.365	12.76
536.818	12.3
537.272	11.32
537.726	12
538.18	12.46
538.634	11.66
539.087	12.5
539.541	12.19
539.995	11.78
540.449	11.45
540.902	12.96
541.356	11.87
541.809	12.18
542.263	11.62
542.716	11.92
543.17	10.94
543.623	12.11
544.077	11.96
544.53	11.53
544.984	10.33
545.437	11.16
545.89	12.11
546.344	12.33
546.797	11.04
547.25	12.3
547.703	11.08
548.157	11.78
548.61	10.89
549.063	12.96
549.516	11.57
549.969	11.99
550.422	11.9
550.875	12.74
551.328	10.92
551.781	11.74
552.234	11.31
552.687	12.23
553.14	12.68
553.592	11.42
554.045	12.96
554.498	11.66
554.951	12.25
555.404	12.52
555.856	11.4
556.309	12.09
556.762	10.72
557.214	12.44
557.667	11.33
558.119	11.9
558.572	11.52
559.024	12.67
559.477	11.86
559.929	12.3
560.382	10.88
560.834	12.74
561.286	11.8
561.739	11.95
562.191	12.62
562.643	12.39
563.095	12.64
563.548	11.42
564	12.93
564.452	11.89
564.904	12.97
565.356	12.37
565.808	12.65
566.26	12.04
566.712	12.78
567.164	12.44
567.616	11.99
568.068	12.2
568.52	13.68
568.972	13.4
569.424	11.57
569.876	12.03
570.327	12.25
570.779	12.24
571.231	13.05
571.682	12.61
572.134	11.89
572.586	12.64
573.037	11.86
573.489	12.77
573.941	12.67
574.392	12.08
574.844	12.25
575.295	12.02
575.746	12.1
576.198	12.07
576.649	12.64
577.101	12.12
577.552	11.97
578.003	12.36
578.454	12.29
578.906	12.71
579.357	12.28
579.808	12.69
580.259	12.26
580.71	12.82
581.161	12.48
581.612	13.12
582.064	12.04
582.515	12.11
582.965	12.48
583.416	12.66
583.867	12.23
584.318	12.62
584.769	12.33
585.22	12.39
585.671	13.56
586.122	12.19
586.572	12.22
587.023	12.13
587.474	13.35
587.924	11.62
588.375	12.49
588.826	11.1
589.276	12.35
589.727	12.09
590.177	12.11
590.628	12.35
591.078	12.51
591.529	12.96
591.979	12.77
592.429	11.4
592.88	12.33
593.33	12.64
593.78	13.23
594.231	12.85
594.681	12.21
595.131	12.41
595.581	12.22
596.031	12.48
596.481	12.81
596.932	12.45
597.382	12.56
597.832	12.51
598.282	12.12
598.732	13.06
599.182	11.97
599.632	12.94
600.081	12.62
600.531	12.12
600.981	12.21
601.431	12.37
601.881	12.69
602.33	12.91
602.78	12.87
603.23	12.64
603.679	12
604.129	12.61
604.579	12.88
605.028	12.08
605.478	12.35
605.927	12
606.377	13.13
606.826	12.82
607.276	12.9
607.725	12.87
608.175	13.25
608.624	11.82
609.073	12.28
609.522	12.79
609.972	13.31
610.421	13.36
610.87	12.35
611.319	12.35
611.768	12.78
612.218	12.32
612.667	13.12
613.116	12.93
613.565	12.67
614.014	12.64
614.463	12.48
614.912	13.2
615.361	13.47
615.81	12.81
616.258	13.06
616.707	13.42
617.156	13.04
617.605	13.36
618.054	12.69
618.502	12.97
618.951	12.79
619.4	13.05
619.848	12.78
620.297	12.62
620.745	12.4
621.194	12.64
621.642	12.43
622.091	12.98
622.539	12.75
622.988	13.03
623.436	12.82
623.885	13.1
624.333	12.45
624.781	13.3
625.23	13.04
625.678	13.03
626.126	12.24
626.574	12.9
627.022	12.78
627.471	12.57
627.919	12.61
628.367	13.35
628.815	12.6
629.263	12.81
629.711	13.29
630.159	12.77
630.607	13.11
631.055	13.05
631.503	13.05
631.95	13.67
632.398	12.85
632.846	12.76
633.294	12.14
633.742	13.02
634.189	12.74
634.637	13.63
635.085	13.17
635.532	13.05
635.98	13.52
636.427	13.06
636.875	13.1
637.323	13.18
637.77	13.03
638.217	13.02
638.665	13.25
639.112	13.05
639.56	12.78
640.007	13.08
640.454	13.15
640.902	13.24
641.349	13.24
641.796	13.58
642.243	13.33
642.69	12.72
643.138	12.97
643.585	12.91
644.032	13.51
644.479	13.58
644.926	13.13
645.373	13.05
645.82	13.55
646.267	13.33
646.714	13.42
647.161	13.04
647.607	13.04
648.054	13.15
648.501	13.77
648.948	12.73
649.395	13.06
649.841	13.08
650.288	13.37
650.735	12.94
651.181	13.49
651.628	13.44
652.075	13.37
652.521	13.43
652.968	13.02
653.414	13.19
653.861	13.45
654.307	13.63
654.753	13.56
655.2	12.92
655.646	13.54
656.092	13.64
656.539	13.68
656.985	13.37
657.431	13.31
657.877	13.37
658.324	13.52
658.77	13.38
659.216	13.35
659.662	13.57
660.108	13.28
660.554	13.47
661	13.12
661.446	12.99
661.892	13.66
662.338	13.1
662.784	13.63
663.23	13
663.675	13.35
664.121	13.07
664.567	13.07
665.013	13.48
665.458	13.05
665.904	13.27
666.35	13.15
666.795	13.51
667.241	13.23
667.687	13.88
668.132	13.37
668.578	13.33
669.023	13.64
669.469	13.47
669.914	13.12
670.359	12.8
670.805	13.34
671.25	13.14
671.695	13.36
672.141	13.28
672.586	13.7
673.031	13.76
673.476	13.23
673.922	13.5
674.367	13.19
674.812	13.51
675.257	13.42
675.702	13.51
676.147	13.91
676.592	13.37
677.037	13.68
677.482	13.54
677.927	13.58
678.372	13.8
678.817	13.85
679.261	13.48
679.706	13.53
680.151	13.95
680.596	13.35
681.04	13.61
681.485	13.45
681.93	13.63
682.374	13.78
682.819	13.62
683.264	13.34
683.708	14.05
684.153	13.19
684.597	13.97
685.042	13.66
685.486	13.43
685.93	13.73
686.375	13.45
686.819	13.62
687.263	13.7
687.708	13.43
688.152	13.61
688.596	13.85
689.04	14.16
689.485	14.06
689.929	14.36
690.373	14.01
690.817	13.46
691.261	13.82
691.705	13.99
692.149	13.34
692.593	13.95
693.037	13.82
693.481	13.47
693.925	13.86
694.369	13.88
694.812	13.64
695.256	13.34
695.7	14.5
696.144	13.7
696.587	13.83
697.031	14.19
697.475	13.62
697.918	13.73
698.362	13.6
698.806	13.69
699.249	13.59
699.693	13.94
700.136	13.52
700.58	13.62
701.023	13.6
701.466	14.24
701.91	13.63
702.353	13.95
702.796	13.91
703.24	13.52
703.683	13.9
704.126	14.18
704.569	13.63
705.013	13.85
705.456	13.93
705.899	13.96
706.342	14.1
706.785	14.01
707.228	14.24
707.671	13.76
708.114	14.24
708.557	13.38
709	13.67
709.443	13.96
709.886	14.2
710.328	14.01
710.771	13.93
711.214	14.13
711.657	14.11
712.099	13.86
712.542	13.7
712.985	14.09
713.427	13.79
713.87	13.53
714.313	13.96
714.755	14.12
715.198	14.09
715.64	13.66
716.083	13.79
716.525	13.71
716.967	14.02
717.41	14.34
717.852	13.99
718.295	14.1
718.737	13.61
719.179	14.23
719.621	14.41
720.063	14.31
720.506	14.46
720.948	14.35
721.39	14.09
721.832	14.03
722.274	14.26
722.716	14.24
723.158	14.16
723.6	13.71
724.042	14.49
724.484	14.27
724.926	14.18
725.368	13.98
725.81	14.08
726.251	14.36
726.693	13.78
727.135	13.79
727.577	13.92
728.018	13.79
728.46	14.04
728.902	14.11
729.343	13.58
729.785	14.2
730.226	13.98
730.668	13.81
731.109	14.04
731.551	14.21
731.992	14.45
732.434	14.71
732.875	13.99
733.316	13.85
733.758	13.69
734.199	13.85
734.64	14.07
735.081	14.1
735.523	14.33
735.964	14.03
736.405	14.39
736.846	14.41
737.287	13.95
737.728	14.31
738.169	14.63
738.61	14.06
739.051	14.16
739.492	14.54
739.933	14.31
740.374	14.04
740.815	14.37
741.256	13.8
741.696	14.23
742.137	14.34
742.578	14.34
743.019	14.44
743.459	14.49
743.9	14.73
744.341	14.51
744.781	13.9
745.222	14.01
745.662	13.9
746.103	13.95
746.543	14.11
746.984	14.48
747.424	14.6
747.865	14.52
748.305	14.14
748.745	14.42
749.186	14.2
749.626	14.33
750.066	14.09
750.506	14.25
750.947	14.32
751.387	14.19
751.827	14.13
752.267	14.55
752.707	14.37
753.147	14.35
753.587	14.72
754.027	14.44
754.467	14.3
754.907	14.52
755.347	13.94
755.787	14.55
756.227	14.84
756.667	14.43
757.107	14.6
757.546	14.37
757.986	14.44
758.426	14.4
758.865	14.34
759.305	14.5
759.745	14.8
760.184	14.6
760.624	14.85
761.063	15.17
761.503	14.98
761.943	14.59
762.382	14.6
762.821	14.88
763.261	14.98
763.7	14.72
764.14	14.43
764.579	15.11
765.018	14.95
765.457	14.56
765.897	14.59
766.336	14.72
766.775	14.57
767.214	15.25
767.653	14.86
768.092	14.74
768.531	14.82
768.97	14.81
769.409	14.87
769.848	14.74
770.287	14.87
770.726	14.75
771.165	14.97
771.604	14.71
772.043	14.62
772.482	14.9
772.92	15.13
773.359	14.7
773.798	15.01
774.237	14.7
774.675	14.9
775.114	15.16
775.553	15.06
775.991	15.04
776.43	15.02
776.868	14.32
777.307	15.24
777.745	14.64
778.184	15.24
778.622	14.64
779.06	14.92
779.499	15.21
779.937	15.18
780.375	14.25
780.814	15.49
781.252	14.94
781.69	15.19
782.128	14.96
782.566	14.93
783.004	15.08
783.443	14.87
783.881	15.05
784.319	15.36
784.757	15.21
785.195	15.31
785.633	14.89
786.071	15.07
786.508	15.1
786.946	15.03
787.384	15.05
787.822	15.28
788.26	14.82
788.697	15.53
789.135	15.24
789.573	15.54
790.011	15.16
790.448	15.01
790.886	14.81
791.323	14.84
791.761	14.85
792.198	15.29
792.636	15.03
793.073	15.21
793.511	15.2
793.948	15.08
794.386	15.42
794.823	15.06
795.26	14.88
795.698	15.15
796.135	15.24
796.572	15.38
797.009	15.13
797.446	15.25
797.884	15.36
798.321	15.32
798.758	15.36
799.195	15.59
799.632	15.28
800.069	15.35
800.506	15.49
800.943	15.42
801.38	14.98
801.817	15.56
802.254	15.45
802.69	15.5
803.127	15.62
803.564	15.87
804.001	15.59
804.438	15.85
804.874	15.41
805.311	15.51
805.748	15.46
