Data from JCR0010_White2_Reflection_00001.txt Node
Date: Thu Jul 23 13:00:53 ACST 2020
User: Stacey Dix
Spectrometer: MAYP113282
Scans to average: 1
Trigger mode: 0
Integration Time (sec): 1.000000E-1
Electric dark correction enabled: true
Boxcar width: 0
XAxis mode: Wavelengths
Number of Pixels in Spectrum: 2068
>>>>>Begin Spectral Data<<<<<
198.791	-93.75
199.266	17.65
199.74	-0
200.215	0
200.69	32.75
201.164	27.61
201.639	13.58
202.114	24.55
202.588	21.81
203.063	23.77
203.537	13.29
204.012	26.91
204.486	27.05
204.961	21.59
205.435	22.49
205.909	20.51
206.384	23.57
206.858	16.3
207.332	25.67
207.807	28.75
208.281	22.7
208.755	17.29
209.229	24.08
209.703	19.1
210.177	18.08
210.651	15.53
211.126	21.69
211.6	20.03
212.074	18.21
212.548	17.34
213.021	15.17
213.495	14.35
213.969	15.75
214.443	20.56
214.917	19.05
215.391	21.15
215.864	20.2
216.338	15.22
216.812	16.44
217.286	13.62
217.759	16.78
218.233	16.59
218.706	11.09
219.18	18.22
219.654	15.34
220.127	15.61
220.6	12.3
221.074	14.6
221.547	12.51
222.021	16.33
222.494	11.12
222.967	14.74
223.441	11.86
223.914	14.08
224.387	9.82
224.86	10.78
225.334	12.73
225.807	8.7
226.28	10.09
226.753	11.33
227.226	10.52
227.699	8.02
228.172	9.19
228.645	9.26
229.118	8.3
229.591	8.53
230.064	7.78
230.537	6.79
231.01	7.36
231.482	8.72
231.955	9.26
232.428	7.25
232.901	8.34
233.373	8.66
233.846	7.12
234.319	6.8
234.791	6.82
235.264	6.7
235.736	6.45
236.209	6.84
236.681	6.74
237.154	6.63
237.626	6.46
238.099	6.43
238.571	6.19
239.044	6.59
239.516	5.64
239.988	6.13
240.46	5.61
240.933	6.88
241.405	5.66
241.877	5.56
242.349	6.54
242.821	5.73
243.293	6.14
243.765	5.57
244.237	6.3
244.71	6.13
245.181	5.16
245.653	5.88
246.125	5.66
246.597	6.04
247.069	5.7
247.541	6.06
248.013	5.97
248.485	5.16
248.956	6.23
249.428	5.9
249.9	5.57
250.371	5.99
250.843	6.1
251.315	4.92
251.786	5.09
252.258	5.17
252.729	5.46
253.201	4.94
253.672	4.65
254.144	4.9
254.615	4.82
255.086	4.92
255.558	4.79
256.029	5.24
256.5	4.8
256.972	4.93
257.443	4.51
257.914	5.1
258.385	4.99
258.856	4.58
259.327	5.1
259.799	4.79
260.27	5.26
260.741	4.68
261.212	4.88
261.683	5.1
262.154	4.86
262.624	4.78
263.095	4.67
263.566	4.96
264.037	4.85
264.508	4.61
264.979	4.86
265.449	4.91
265.92	4.8
266.391	5.04
266.861	4.96
267.332	4.07
267.803	4.86
268.273	4.91
268.744	4.61
269.214	5.08
269.685	4.81
270.155	4.51
270.626	4.75
271.096	4.28
271.566	4.56
272.037	4.68
272.507	4.92
272.977	4.63
273.448	5.05
273.918	5.05
274.388	4.75
274.858	4.45
275.328	4.53
275.798	4.9
276.268	4.81
276.738	4.57
277.208	5.21
277.678	5.17
278.148	4.89
278.618	4.7
279.088	5.24
279.558	4.17
280.028	4.58
280.498	4.54
280.968	4.88
281.437	5.13
281.907	4.94
282.377	4.84
282.847	4.2
283.316	4.55
283.786	4.63
284.255	4.6
284.725	4.38
285.194	4.6
285.664	4.51
286.133	4.85
286.603	4.74
287.072	4.6
287.542	4.95
288.011	4.54
288.48	4.26
288.95	4.21
289.419	4.5
289.888	5.02
290.357	4.18
290.827	4.43
291.296	4.53
291.765	4.49
292.234	4.87
292.703	3.97
293.172	4.4
293.641	4.33
294.11	4.86
294.579	4.31
295.048	4.85
295.517	5.01
295.986	4.41
296.455	5.22
296.923	4.73
297.392	4.88
297.861	4.32
298.33	4.53
298.798	5.01
299.267	5.01
299.736	4.1
300.204	5.01
300.673	5.04
301.141	5
301.61	4.2
302.079	4.93
302.547	4.6
303.015	4.68
303.484	4.9
303.952	4.88
304.421	4.82
304.889	5.09
305.357	4.89
305.825	4.97
306.294	4.62
306.762	4.63
307.23	5.3
307.698	5.04
308.166	4.72
308.634	5.02
309.103	4.9
309.571	4.8
310.039	5.13
310.507	4.55
310.975	4.87
311.442	4.78
311.91	4.98
312.378	4.75
312.846	4.54
313.314	5.07
313.782	5.04
314.249	5.3
314.717	5.28
315.185	5.05
315.652	5.12
316.12	5.22
316.588	5
317.055	5.07
317.523	5.03
317.99	4.88
318.458	4.61
318.925	4.88
319.393	5.11
319.86	5
320.328	4.89
320.795	5.43
321.262	5.61
321.73	5.24
322.197	4.94
322.664	5.59
323.131	5.63
323.598	5.21
324.066	5.43
324.533	6.04
325	5.82
325.467	5.94
325.934	6.48
326.401	6.34
326.868	6.8
327.335	6.93
327.802	7.43
328.269	7.54
328.735	7.53
329.202	8.01
329.669	8.07
330.136	8.6
330.603	8.91
331.069	8.51
331.536	9.4
332.003	8.72
332.469	9.36
332.936	9.05
333.402	8.67
333.869	9.35
334.336	8.92
334.802	9.59
335.268	10.12
335.735	9.14
336.201	10
336.668	10.47
337.134	9.98
337.6	9.72
338.067	10.36
338.533	10.1
338.999	9.3
339.465	9.77
339.931	9.93
340.398	9.95
340.864	9.93
341.33	9.85
341.796	9.93
342.262	10.19
342.728	9.99
343.194	10.5
343.66	10.36
344.126	10.34
344.592	9.94
345.057	10.16
345.523	10.36
345.989	9.91
346.455	10.12
346.921	10.4
347.386	9.1
347.852	10.37
348.318	9.94
348.783	10.23
349.249	9.72
349.714	9.74
350.18	9.82
350.645	10.38
351.111	9.42
351.576	10.12
352.042	10.08
352.507	9.58
352.973	10.62
353.438	9.32
353.903	9.53
354.369	9.72
354.834	9.63
355.299	9.91
355.764	9.28
356.229	10.02
356.695	9.58
357.16	9.74
357.625	9.26
358.09	10.68
358.555	9.92
359.02	9.91
359.485	10.04
359.95	10.25
360.415	9.81
360.879	9.63
361.344	10.12
361.809	9.67
362.274	9.62
362.739	9.77
363.203	9.77
363.668	9.96
364.133	10.37
364.597	9.37
365.062	9.71
365.527	9.48
365.991	9.9
366.456	9.98
366.92	10.32
367.385	10.25
367.849	9.97
368.314	9.86
368.778	10.05
369.242	9.91
369.707	9.45
370.171	10.41
370.635	10.39
371.1	9.87
371.564	10.02
372.028	10.55
372.492	9.49
372.956	9.71
373.42	9.64
373.884	10.41
374.348	9.73
374.812	9.7
375.276	10.57
375.74	10.28
376.204	9.97
376.668	10.2
377.132	10.04
377.596	9.91
378.06	10.31
378.524	10.04
378.987	10.3
379.451	10.24
379.915	10.44
380.378	10.42
380.842	10.78
381.306	10.65
381.769	10.07
382.233	10.76
382.696	9.8
383.16	10.2
383.623	10.32
384.087	11.02
384.55	10.47
385.014	10.69
385.477	10.52
385.94	10.12
386.404	10.74
386.867	10.73
387.33	10.08
387.793	10.04
388.256	11.1
388.72	10.27
389.183	10.61
389.646	11.05
390.109	10.63
390.572	10.21
391.035	10.75
391.498	10.54
391.961	11.09
392.424	11.04
392.887	10.86
393.35	10.79
393.812	10.74
394.275	10.81
394.738	11.15
395.201	10.85
395.664	10.36
396.126	10.83
396.589	10.47
397.052	10.46
397.514	10.97
397.977	10.67
398.439	10.76
398.902	10.45
399.364	10.36
399.827	10.85
400.289	11.1
400.752	11.13
401.214	10.3
401.676	10.77
402.139	11.14
402.601	11.18
403.063	10.92
403.525	10.18
403.988	10.54
404.45	10.47
404.912	10.65
405.374	10.48
405.836	10.73
406.298	10.85
406.76	11.08
407.222	11.36
407.684	11.22
408.146	11.29
408.608	10.64
409.07	10.93
409.532	10.73
409.994	10.75
410.456	11.38
410.917	11.16
411.379	11.46
411.841	10.43
412.303	10.42
412.764	10.95
413.226	10.88
413.687	11.06
414.149	11.07
414.611	10.32
415.072	11.28
415.534	10.86
415.995	11.24
416.457	10.81
416.918	11.37
417.379	11.02
417.841	10.95
418.302	11.29
418.763	11.52
419.225	11.44
419.686	10.95
420.147	11.33
420.608	11.39
421.069	11.32
421.53	11.22
421.991	11.54
422.453	11.59
422.914	11.29
423.375	11.27
423.836	11.34
424.297	11.03
424.757	10.8
425.218	11.3
425.679	11.32
426.14	10.95
426.601	10.91
427.062	10.61
427.522	10.93
427.983	11.21
428.444	10.77
428.904	11.5
429.365	11.48
429.826	12
430.286	11.05
430.747	12.28
431.207	11.81
431.668	12.74
432.128	11.63
432.589	11.55
433.049	11.09
433.509	11.4
433.97	11.61
434.43	11.09
434.89	11.21
435.351	10.92
435.811	11.77
436.271	12.52
436.731	11.42
437.191	12.02
437.651	11.66
438.112	11.62
438.572	11.63
439.032	10.59
439.492	11.63
439.952	11.42
440.412	11.38
440.871	11.62
441.331	10.64
441.791	11.66
442.251	11.32
442.711	12.04
443.171	10.33
443.63	10.67
444.09	11.23
444.55	11.69
445.009	11.46
445.469	10.54
445.929	11.34
446.388	11.54
446.848	11.42
447.307	11.53
447.767	10.62
448.226	11.57
448.686	11.33
449.145	11.81
449.604	11.62
450.064	12.19
450.523	11.41
450.982	11.77
451.442	11.12
451.901	12.37
452.36	11.15
452.819	11.75
453.278	11.21
453.737	10.7
454.197	11.45
454.656	11.19
455.115	12.05
455.574	11.06
456.033	11.88
456.492	11.69
456.95	11.27
457.409	11.88
457.868	10.98
458.327	11.09
458.786	11.93
459.245	10.91
459.703	10.84
460.162	11.32
460.621	11.58
461.079	11.22
461.538	12.42
461.997	12.16
462.455	10.87
462.914	11.44
463.372	11.26
463.831	11.85
464.289	11.41
464.748	12
465.206	11.46
465.664	11.5
466.123	11.28
466.581	11.22
467.039	12.54
467.497	11.81
467.956	11.76
468.414	11.76
468.872	12.77
469.33	11.39
469.788	11.75
470.246	12.55
470.704	11.5
471.162	11.37
471.62	11.42
472.078	11.81
472.536	11.94
472.994	11.95
473.452	12.2
473.91	12.2
474.368	11.51
474.826	12.58
475.283	11.66
475.741	11.4
476.199	12.33
476.656	12.04
477.114	11.82
477.572	11.79
478.029	11.8
478.487	11.57
478.944	11.56
479.402	12.08
479.859	11.37
480.317	11.69
480.774	10.6
481.232	12.18
481.689	12.4
482.146	11.31
482.604	11.72
483.061	12.52
483.518	11.94
483.975	11.79
484.433	11.98
484.89	12.22
485.347	11.88
485.804	12.12
486.261	12.81
486.718	10.71
487.175	12.09
487.632	12.31
488.089	12.34
488.546	12.53
489.003	11.52
489.46	11.98
489.917	11.14
490.373	12.54
490.83	11.89
491.287	12.63
491.744	12.92
492.2	11.78
492.657	12.23
493.114	11.07
493.57	12.08
494.027	12.21
494.484	12.19
494.94	11.24
495.397	11.97
495.853	11.81
496.31	12.41
496.766	11.94
497.222	12.97
497.679	12.61
498.135	11.9
498.591	12.31
499.048	12.21
499.504	11.84
499.96	12.74
500.416	12.17
500.872	11.87
501.329	12.77
501.785	11.46
502.241	11.48
502.697	11.81
503.153	10.78
503.609	12.83
504.065	11.8
504.521	11.9
504.977	12.24
505.432	12.32
505.888	12.33
506.344	11.74
506.8	12.47
507.256	12.36
507.711	11.78
508.167	12.07
508.623	11.72
509.078	12.24
509.534	12.64
509.99	11.61
510.445	12.3
510.901	12.13
511.356	11.99
511.812	12.66
512.267	11.46
512.722	12.46
513.178	12.04
513.633	11.94
514.089	11.95
514.544	12.2
514.999	11.47
515.454	12.09
515.91	12.46
516.365	12.33
516.82	12.44
517.275	12.44
517.73	11.91
518.185	11.97
518.64	12.49
519.095	12.04
519.55	12.38
520.005	12.41
520.46	12.11
520.915	12.1
521.37	13.14
521.825	11.7
522.28	12.28
522.734	12.64
523.189	11.81
523.644	12.3
524.099	12.88
524.553	12.5
525.008	12.03
525.462	12.74
525.917	12.54
526.372	12.18
526.826	12.61
527.281	12.19
527.735	12.36
528.19	12.18
528.644	12.17
529.098	12.45
529.553	12.71
530.007	12.4
530.461	12.96
530.916	12.61
531.37	12.45
531.824	11.87
532.278	12.24
532.732	12.79
533.186	12.45
533.641	12.35
534.095	11.7
534.549	12.94
535.003	12.33
535.457	12.51
535.911	12.66
536.365	12.42
536.818	12.12
537.272	12.73
537.726	12.49
538.18	13.52
538.634	12.06
539.087	12.12
539.541	12.63
539.995	12.89
540.449	13.45
540.902	11.91
541.356	12.9
541.809	13.24
542.263	11.98
542.716	12.84
543.17	12.38
543.623	13.04
544.077	11.79
544.53	12.27
544.984	12.58
545.437	12.21
545.89	12.96
546.344	12.49
546.797	12.62
547.25	12.31
547.703	12.64
548.157	12.86
548.61	11.99
549.063	12.63
549.516	13.33
549.969	11.76
550.422	13.53
550.875	12.63
551.328	13.31
551.781	12.53
552.234	12.98
552.687	12.36
553.14	12.7
553.592	12.48
554.045	13.11
554.498	12.39
554.951	12.45
555.404	12.84
555.856	12.51
556.309	13.25
556.762	12.6
557.214	13.65
557.667	12.81
558.119	12.4
558.572	12.76
559.024	12.77
559.477	12.61
559.929	12.98
560.382	12.32
560.834	12.61
561.286	12.7
561.739	12.93
562.191	13.1
562.643	12.72
563.095	13.53
563.548	12.31
564	13.31
564.452	13.62
564.904	12.23
565.356	12.86
565.808	12.81
566.26	13.74
566.712	12.84
567.164	12.78
567.616	12.89
568.068	12.84
568.52	13.51
568.972	13.2
569.424	12.86
569.876	13.31
570.327	12.87
570.779	12.55
571.231	12.67
571.682	12.98
572.134	12.75
572.586	12.61
573.037	12.92
573.489	13.16
573.941	12.69
574.392	12.62
574.844	13.22
575.295	13.05
575.746	12.19
576.198	13
576.649	13.02
577.101	13.16
577.552	12.52
578.003	13.55
578.454	12.72
578.906	12.83
579.357	13.55
579.808	13.05
580.259	12.85
580.71	12.92
581.161	13.04
581.612	12.99
582.064	12.74
582.515	13.06
582.965	13.22
583.416	12.7
583.867	13.32
584.318	12.82
584.769	13.21
585.22	13.01
585.671	13.23
586.122	13.29
586.572	13.14
587.023	12.81
587.474	12.56
587.924	13.48
588.375	13.11
588.826	13.2
589.276	12.74
589.727	12.39
590.177	13.81
590.628	12.12
591.078	12.96
591.529	12.95
591.979	12.88
592.429	12.87
592.88	13.23
593.33	13.23
593.78	13.21
594.231	12.94
594.681	13.19
595.131	12.86
595.581	12.72
596.031	13.02
596.481	13.11
596.932	13.12
597.382	13.14
597.832	12.92
598.282	13.33
598.732	12.98
599.182	13.18
599.632	12.54
600.081	12.93
600.531	12.91
600.981	13.2
601.431	13.43
601.881	13.76
602.33	13.09
602.78	13.41
603.23	13.29
603.679	12.85
604.129	13.7
604.579	13.08
605.028	12.99
605.478	13.77
605.927	13.7
606.377	13.77
606.826	13.56
607.276	13.02
607.725	12.88
608.175	13.08
608.624	14.01
609.073	13.42
609.522	13.71
609.972	13.17
610.421	13.17
610.87	13.41
611.319	13.31
611.768	13.2
612.218	13.22
612.667	12.95
613.116	13.55
613.565	13.37
614.014	13.15
614.463	13.22
614.912	13.73
615.361	13.52
615.81	13.66
616.258	13.48
616.707	13.63
617.156	13.33
617.605	13.6
618.054	13.47
618.502	13.71
618.951	13.44
619.4	13.68
619.848	13.51
620.297	13.74
620.745	13.91
621.194	13.35
621.642	13.4
622.091	13.12
622.539	13.4
622.988	13.67
623.436	13.78
623.885	13.2
624.333	14
624.781	13.55
625.23	12.98
625.678	13.87
626.126	13.54
626.574	13.88
627.022	13.55
627.471	13.6
627.919	13.68
628.367	13.72
628.815	13.6
629.263	13.69
629.711	13.71
630.159	13.5
630.607	13.9
631.055	13.5
631.503	13.56
631.95	13.32
632.398	13.3
632.846	13.62
633.294	14.11
633.742	13.93
634.189	14.01
634.637	13.68
635.085	13.49
635.532	13.7
635.98	13.73
636.427	13.45
636.875	13.7
637.323	13.84
637.77	13.97
638.217	13.48
638.665	13.54
639.112	13.69
639.56	13.83
640.007	13.52
640.454	13.31
640.902	13.44
641.349	14.18
641.796	14.09
642.243	13.75
642.69	13.67
643.138	13.94
643.585	13.74
644.032	13.61
644.479	13.71
644.926	13.35
645.373	13.79
645.82	13.81
646.267	13.97
646.714	13.88
647.161	14.32
647.607	13.54
648.054	13.89
648.501	13.69
648.948	14.53
649.395	14.17
649.841	14.11
650.288	14.14
650.735	13.77
651.181	13.85
651.628	14.13
652.075	13.77
652.521	14.01
652.968	13.6
653.414	13.45
653.861	14.12
654.307	14.15
654.753	13.8
655.2	14.13
655.646	13.48
656.092	13.81
656.539	13.85
656.985	13.98
657.431	14.14
657.877	13.69
658.324	14.22
658.77	14.21
659.216	13.96
659.662	14.07
660.108	14.13
660.554	14.3
661	14.14
661.446	14.3
661.892	13.98
662.338	14.13
662.784	14.26
663.23	13.79
663.675	14.2
664.121	14.05
664.567	14.16
665.013	14.33
665.458	14.48
665.904	14.22
666.35	13.96
666.795	14.05
667.241	14.11
667.687	13.96
668.132	14.34
668.578	14.19
669.023	14.3
669.469	14.02
669.914	14.22
670.359	14.12
670.805	14.41
671.25	14.1
671.695	14.07
672.141	14.22
672.586	14.47
673.031	14.09
673.476	14.25
673.922	14.27
674.367	14.14
674.812	14.14
675.257	14.23
675.702	14.32
676.147	14.44
676.592	14.11
677.037	14.09
677.482	14.36
677.927	14.33
678.372	14.24
678.817	14.31
679.261	14.51
679.706	14.61
680.151	14.22
680.596	14.38
681.04	14.43
681.485	14.29
681.93	14.76
682.374	14.32
682.819	14.48
683.264	14.37
683.708	14.73
684.153	14.38
684.597	14.47
685.042	14.62
685.486	14.84
685.93	14.53
686.375	14.42
686.819	14.43
687.263	14.68
687.708	14.54
688.152	14.71
688.596	14.17
689.04	14.52
689.485	14.52
689.929	14.5
690.373	14.29
690.817	14.62
691.261	14.67
691.705	14.21
692.149	14.97
692.593	14.59
693.037	15.18
693.481	14.46
693.925	14.8
694.369	14.66
694.812	14.4
695.256	14.61
695.7	14.6
696.144	14.53
696.587	14.98
697.031	14.57
697.475	14.71
697.918	14.88
698.362	14.57
698.806	14.53
699.249	14.85
699.693	14.73
700.136	14.56
700.58	14.87
701.023	14.56
701.466	14.8
701.91	14.9
702.353	14.44
702.796	14.7
703.24	15.13
703.683	14.83
704.126	14.89
704.569	14.69
705.013	15.07
705.456	14.97
705.899	14.94
706.342	14.85
706.785	14.84
707.228	14.89
707.671	14.78
708.114	14.71
708.557	14.97
709	15.14
709.443	14.88
709.886	14.94
710.328	15.19
710.771	15.03
711.214	15.08
711.657	14.89
712.099	14.8
712.542	14.77
712.985	15.22
713.427	15.14
713.87	14.77
714.313	15.14
714.755	15.02
715.198	14.71
715.64	15.14
716.083	14.88
716.525	14.74
716.967	14.87
717.41	15.21
717.852	14.82
718.295	14.95
718.737	15.06
719.179	14.92
719.621	14.98
720.063	15.16
720.506	14.95
720.948	14.86
721.39	14.81
721.832	15.01
722.274	15.13
722.716	14.94
723.158	15.3
723.6	15.1
724.042	15.66
724.484	14.94
724.926	15.23
725.368	14.84
725.81	15.32
726.251	15.55
726.693	14.96
727.135	15.2
727.577	15.53
728.018	15.36
728.46	14.9
728.902	15.5
729.343	15.02
729.785	15.36
730.226	15.25
730.668	15.23
731.109	15.02
731.551	15.09
731.992	15.24
732.434	15.02
732.875	15.09
733.316	15.23
733.758	15.17
734.199	15.62
734.64	15.35
735.081	14.99
735.523	15.73
735.964	15.48
736.405	15.41
736.846	14.95
737.287	15.19
737.728	15.38
738.169	15.6
738.61	15.62
739.051	15.68
739.492	15.19
739.933	15.28
740.374	15.69
740.815	15.27
741.256	15.67
741.696	15.27
742.137	15.34
742.578	15.37
743.019	15.33
743.459	15.54
743.9	15.55
744.341	15.3
744.781	15.57
745.222	15.52
745.662	15.15
746.103	15.6
746.543	15.65
746.984	15.4
747.424	15.54
747.865	15.47
748.305	15.29
748.745	15.56
749.186	15.47
749.626	15.69
750.066	15.73
750.506	15.51
750.947	15.53
751.387	15.49
751.827	15.67
752.267	15.58
752.707	15.17
753.147	15.89
753.587	15.77
754.027	15.68
754.467	15.97
754.907	15.79
755.347	15.58
755.787	15.66
756.227	15.92
756.667	15.68
757.107	15.9
757.546	15.56
757.986	15.94
758.426	15.69
758.865	15.72
759.305	15.92
759.745	15.83
760.184	15.72
760.624	15.87
761.063	15.67
761.503	15.76
761.943	16.26
762.382	16.01
762.821	15.63
763.261	15.92
763.7	16.31
764.14	15.75
764.579	16.13
765.018	15.58
765.457	15.99
765.897	15.82
766.336	15.78
766.775	15.6
767.214	15.63
767.653	15.92
768.092	15.66
768.531	16.11
768.97	16.3
769.409	15.91
769.848	16
770.287	16.1
770.726	15.82
771.165	15.97
771.604	16.46
772.043	15.72
772.482	16.29
772.92	15.91
773.359	16.19
773.798	16.05
774.237	15.91
774.675	16.11
775.114	16.19
775.553	16.2
775.991	15.86
776.43	16.03
776.868	16.18
777.307	16.08
777.745	15.95
778.184	16.28
778.622	16.27
779.06	16.15
779.499	16.28
779.937	16.19
780.375	16.18
780.814	16.31
781.252	15.91
781.69	16.17
782.128	16.19
782.566	16.25
783.004	16.33
783.443	16.55
783.881	16.12
784.319	16.45
784.757	16.2
785.195	16.66
785.633	15.99
786.071	16.29
786.508	16.01
786.946	16.39
787.384	16.38
787.822	16.5
788.26	16.06
788.697	16.69
789.135	16.46
789.573	16.22
790.011	16.57
790.448	16.29
790.886	16.34
791.323	16.74
791.761	16.24
792.198	16.36
792.636	16.3
793.073	16.54
793.511	16.58
793.948	16.34
794.386	16.51
794.823	16.56
795.26	16.62
795.698	16.38
796.135	16.39
796.572	16.64
797.009	16.32
797.446	16.5
797.884	16.68
798.321	16.65
798.758	16.35
799.195	16.8
799.632	16.82
800.069	16.88
800.506	16.31
800.943	16.79
801.38	16.84
801.817	16.43
802.254	16.75
802.69	16.82
803.127	16.77
803.564	16.81
804.001	16.48
804.438	16.58
804.874	16.57
805.311	16.65
805.748	16.87
806.184	16.54
806.621	16.58
807.057	16.82
807.494	16.91
807.93	16.63
808.367	16.71
808.803	16.7
809.24	16.53
809.676	16.92
810.112	16.92
810.549	16.54
810.985	16.68
811.421	16.95
811.857	16.57
812.294	16.86
812.73	16.68
813.166	16.86
813.602	16.97
814.038	16.65
