Data from JCR0009_YellowVentral_Reflection_00001.txt Node
Date: Wed Jul 22 16:43:29 ACST 2020
User: Stacey Dix
Spectrometer: MAYP113282
Scans to average: 1
Trigger mode: 0
Integration Time (sec): 1.000000E-1
Electric dark correction enabled: true
Boxcar width: 0
XAxis mode: Wavelengths
Number of Pixels in Spectrum: 2068
>>>>>Begin Spectral Data<<<<<
198.791	-588
199.266	142.11
199.74	65.22
200.215	-12
200.69	114.19
201.164	99.24
201.639	72.69
202.114	95.5
202.588	88.01
203.063	127.24
203.537	120.21
204.012	77.89
204.486	122.78
204.961	99.55
205.435	65.09
205.909	80.37
206.384	147.27
206.858	114.23
207.332	81.37
207.807	107.36
208.281	120.14
208.755	111.3
209.229	175.77
209.703	104.05
210.177	118.65
210.651	69.04
211.126	111.53
211.6	114.68
212.074	74.57
212.548	68.47
213.021	79.81
213.495	86.3
213.969	100.8
214.443	86.82
214.917	99.57
215.391	109.37
215.864	67.45
216.338	78.74
216.812	68.81
217.286	65.26
217.759	78.16
218.233	76.15
218.706	74.37
219.18	50.61
219.654	70.29
220.127	69.04
220.6	70.43
221.074	55.78
221.547	53.2
222.021	54.3
222.494	55.67
222.967	57.94
223.441	62.99
223.914	61.4
224.387	48.12
224.86	54.36
225.334	44.63
225.807	63.09
226.28	52.1
226.753	53.11
227.226	42.92
227.699	44.02
228.172	39.85
228.645	36.98
229.118	41.31
229.591	48.34
230.064	37.67
230.537	40.38
231.01	36.8
231.482	42.32
231.955	37.4
232.428	40.17
232.901	33.38
233.373	33.97
233.846	30.46
234.319	31.72
234.791	36.56
235.264	33.59
235.736	32.47
236.209	30.2
236.681	35.65
237.154	30.05
237.626	31.92
238.099	32.82
238.571	28.59
239.044	27.99
239.516	32.02
239.988	31.73
240.46	27.73
240.933	29.98
241.405	28.98
241.877	26.23
242.349	27.12
242.821	28.6
243.293	25.24
243.765	25.45
244.237	26.5
244.71	24.38
245.181	29.15
245.653	29.26
246.125	26.57
246.597	28.88
247.069	28.04
247.541	27.08
248.013	28
248.485	29.25
248.956	25.64
249.428	25.34
249.9	24.79
250.371	25.03
250.843	24.21
251.315	24.22
251.786	24.57
252.258	23.48
252.729	22.5
253.201	23.01
253.672	23.26
254.144	18.84
254.615	21.99
255.086	22.96
255.558	22.69
256.029	23.3
256.5	22.63
256.972	21.48
257.443	22.63
257.914	22.89
258.385	21.71
258.856	21.13
259.327	20.4
259.799	21.72
260.27	21.13
260.741	21.16
261.212	21.61
261.683	22.03
262.154	20.65
262.624	21.52
263.095	20.56
263.566	23.11
264.037	20.64
264.508	21.94
264.979	21.13
265.449	20.79
265.92	22.77
266.391	21.58
266.861	20.69
267.332	21.67
267.803	21.52
268.273	22.12
268.744	19.13
269.214	21.58
269.685	22.06
270.155	19.92
270.626	22.14
271.096	23.13
271.566	22.24
272.037	23.44
272.507	22.54
272.977	22.96
273.448	20.17
273.918	21.02
274.388	21.64
274.858	22.15
275.328	23.15
275.798	21.07
276.268	19.49
276.738	19.91
277.208	20.74
277.678	19.93
278.148	22.52
278.618	19.65
279.088	20.57
279.558	20.61
280.028	20.18
280.498	20.45
280.968	20.73
281.437	22.04
281.907	19.59
282.377	19.86
282.847	18.74
283.316	20.97
283.786	20.91
284.255	18.82
284.725	19.68
285.194	20.06
285.664	18.28
286.133	20.41
286.603	20.64
287.072	18.7
287.542	18.27
288.011	20.4
288.48	19.4
288.95	19.29
289.419	18.88
289.888	20.09
290.357	19.47
290.827	17.89
291.296	17.9
291.765	20.4
292.234	19.29
292.703	20.46
293.172	21.45
293.641	19.2
294.11	19.05
294.579	19.08
295.048	20.67
295.517	21.74
295.986	19.29
296.455	20.35
296.923	20.33
297.392	20.04
297.861	19.88
298.33	22.29
298.798	19.3
299.267	22.69
299.736	21.2
300.204	22.31
300.673	19.88
301.141	19.81
301.61	21.49
302.079	22.77
302.547	20.53
303.015	21.79
303.484	21.52
303.952	19.91
304.421	21.68
304.889	20.18
305.357	21.88
305.825	21.34
306.294	20.59
306.762	22.95
307.23	22.92
307.698	22.27
308.166	21.98
308.634	20.94
309.103	22.05
309.571	22.02
310.039	19.34
310.507	20.57
310.975	22.03
311.442	20.55
311.91	20.55
312.378	22.12
312.846	21.08
313.314	21.69
313.782	21.07
314.249	20.55
314.717	22.76
315.185	21.84
315.652	20.34
316.12	20.43
316.588	20.69
317.055	19.22
317.523	20.82
317.99	21.92
318.458	21.51
318.925	21.02
319.393	19.55
319.86	21.8
320.328	21.73
320.795	22.55
321.262	20.65
321.73	21.55
322.197	22.4
322.664	20.37
323.131	19.62
323.598	22.47
324.066	22.77
324.533	22.74
325	22.36
325.467	23.13
325.934	21.74
326.401	23.22
326.868	23.2
327.335	23.4
327.802	21.95
328.269	22.81
328.735	26.95
329.202	25.06
329.669	25
330.136	25.23
330.603	22.73
331.069	24.09
331.536	23.74
332.003	23.01
332.469	25.85
332.936	24
333.402	25.2
333.869	23.68
334.336	23.56
334.802	25.9
335.268	24.2
335.735	24.8
336.201	24.7
336.668	26.24
337.134	25.29
337.6	27.35
338.067	23.91
338.533	24.05
338.999	26.02
339.465	25.45
339.931	26.87
340.398	24.12
340.864	25.26
341.33	24.08
341.796	26.01
342.262	23.46
342.728	25.61
343.194	23.36
343.66	25.47
344.126	24.96
344.592	24.37
345.057	26.36
345.523	24.49
345.989	25.2
346.455	24.38
346.921	25.18
347.386	23.07
347.852	23.84
348.318	22.98
348.783	24.72
349.249	25.19
349.714	25.78
350.18	26.52
350.645	26.33
351.111	24.71
351.576	21.76
352.042	25.36
352.507	24.93
352.973	24.53
353.438	24.26
353.903	26.76
354.369	25.78
354.834	24.6
355.299	25.68
355.764	25.81
356.229	23.21
356.695	24.1
357.16	24.05
357.625	22.3
358.09	24.75
358.555	26.09
359.02	26.09
359.485	22.79
359.95	26.48
360.415	25.63
360.879	26.9
361.344	23.94
361.809	24.77
362.274	23.25
362.739	25.49
363.203	25.56
363.668	26.52
364.133	24.62
364.597	23.42
365.062	25.63
365.527	24.56
365.991	24.8
366.456	23.98
366.92	25.56
367.385	23.99
367.849	25.6
368.314	25.05
368.778	25
369.242	24.82
369.707	24.91
370.171	22.14
370.635	22.97
371.1	23.37
371.564	24.94
372.028	24.64
372.492	23.84
372.956	22.04
373.42	22.98
373.884	23.66
374.348	22.12
374.812	23.11
375.276	22.74
375.74	24.79
376.204	25.87
376.668	22.38
377.132	25.24
377.596	23.91
378.06	23.43
378.524	24.28
378.987	24.16
379.451	22.75
379.915	22.63
380.378	23.72
380.842	21.2
381.306	24.39
381.769	22.13
382.233	23.73
382.696	21.71
383.16	23.17
383.623	21.8
384.087	24.14
384.55	21.92
385.014	21.77
385.477	22.01
385.94	22.85
386.404	22.1
386.867	22.58
387.33	23.5
387.793	22.24
388.256	21.69
388.72	21.11
389.183	23.63
389.646	22.21
390.109	23.32
390.572	23.29
391.035	22.43
391.498	20.82
391.961	22.69
392.424	21.89
392.887	22.25
393.35	20.37
393.812	21.74
394.275	22.55
394.738	21.54
395.201	21.96
395.664	22.68
396.126	23.34
396.589	23.3
397.052	21.76
397.514	22.83
397.977	23.03
398.439	21.85
398.902	20.62
399.364	22.04
399.827	23.05
400.289	20.72
400.752	22.83
401.214	20.77
401.676	22.35
402.139	19.79
402.601	21.16
403.063	22.49
403.525	21.87
403.988	22.75
404.45	21.59
404.912	22
405.374	21.48
405.836	21.32
406.298	21.56
406.76	20.96
407.222	22.07
407.684	20.78
408.146	20.61
408.608	20.6
409.07	22.45
409.532	20.08
409.994	22.18
410.456	23.11
410.917	20.93
411.379	20.94
411.841	19.67
412.303	20.83
412.764	21.24
413.226	19.2
413.687	19.48
414.149	20.57
414.611	20.85
415.072	21.66
415.534	21.47
415.995	20.74
416.457	20.64
416.918	21.12
417.379	20.19
417.841	19.84
418.302	23.89
418.763	20.92
419.225	21.56
419.686	19.06
420.147	21.31
420.608	22.02
421.069	20.45
421.53	20.48
421.991	20.65
422.453	19.55
422.914	22.12
423.375	21.33
423.836	23.19
424.297	22.92
424.757	23.02
425.218	22.44
425.679	22.98
426.14	21.08
426.601	22.06
427.062	25.7
427.522	22.68
427.983	21.37
428.444	23.04
428.904	23.21
429.365	23.68
429.826	23.18
430.286	22.1
430.747	22.29
431.207	24.84
431.668	22.35
432.128	22.93
432.589	23.43
433.049	24.27
433.509	24.9
433.97	20.05
434.43	23.61
434.89	23.39
435.351	24.15
435.811	24.43
436.271	22.39
436.731	23.06
437.191	24.58
437.651	21.97
438.112	24.04
438.572	21.22
439.032	23.79
439.492	24.15
439.952	23.22
440.412	23.1
440.871	25.79
441.331	22.81
441.791	25.07
442.251	21.71
442.711	24.72
443.171	21.48
443.63	21.72
444.09	24.2
444.55	25.61
445.009	25.29
445.469	23.84
445.929	24.03
446.388	24.85
446.848	24.24
447.307	22.22
447.767	23.11
448.226	22.76
448.686	21.89
449.145	21.69
449.604	21.88
450.064	23.21
450.523	23.19
450.982	22.62
451.442	23.4
451.901	24.72
452.36	24.19
452.819	22.86
453.278	23.57
453.737	23.11
454.197	21.56
454.656	24.6
455.115	23.76
455.574	24.22
456.033	23.16
456.492	22.91
456.95	25.87
457.409	23.56
457.868	25.93
458.327	24.66
458.786	24.71
459.245	23.04
459.703	23.82
460.162	24.81
460.621	24.54
461.079	23.05
461.538	23.95
461.997	23.23
462.455	22.38
462.914	25.57
463.372	25.03
463.831	21.37
464.289	22.45
464.748	27.46
465.206	26.6
465.664	23.3
466.123	26.91
466.581	26.3
467.039	23.19
467.497	24.59
467.956	25.52
468.414	25.88
468.872	25.9
469.33	27.69
469.788	23.08
470.246	26.96
470.704	24.03
471.162	23.23
471.62	26.49
472.078	24.59
472.536	26.42
472.994	26.77
473.452	26.01
473.91	26.73
474.368	28.74
474.826	25.44
475.283	26.82
475.741	28.39
476.199	27.28
476.656	26.54
477.114	24.52
477.572	26.91
478.029	29.07
478.487	28.01
478.944	24.98
479.402	28.72
479.859	26.77
480.317	26.29
480.774	28.92
481.232	27.69
481.689	27.59
482.146	28.83
482.604	28.33
483.061	30.5
483.518	29.44
483.975	29.03
484.433	29.37
484.89	29.26
485.347	26.8
485.804	28.55
486.261	29.91
486.718	28.97
487.175	30.13
487.632	31.31
488.089	31.95
488.546	32.85
489.003	28.9
489.46	34.82
489.917	30.67
490.373	34.05
490.83	33.57
491.287	32.43
491.744	30.97
492.2	34.21
492.657	31.98
493.114	27.44
493.57	29.98
494.027	32.77
494.484	31.79
494.94	30.24
495.397	31.83
495.853	29.95
496.31	32.11
496.766	34.28
497.222	34.08
497.679	36.56
498.135	31.32
498.591	33.91
499.048	32.5
499.504	36.28
499.96	33.81
500.416	34.1
500.872	33.61
501.329	31.28
501.785	33.2
502.241	32.22
502.697	30.43
503.153	31.62
503.609	32.87
504.065	31.9
504.521	33.89
504.977	33.32
505.432	31.5
505.888	32.24
506.344	34.74
506.8	31.47
507.256	34.03
507.711	31.06
508.167	31.95
508.623	34.42
509.078	32.85
509.534	32.1
509.99	33.43
510.445	34.25
510.901	30.93
511.356	32.68
511.812	33.53
512.267	32.01
512.722	35.26
513.178	32.57
513.633	31.63
514.089	34.1
514.544	35.65
514.999	31.14
515.454	32.34
515.91	34.56
516.365	32.18
516.82	32.79
517.275	35.58
517.73	30.85
518.185	32.96
518.64	32.98
519.095	32.24
519.55	35.22
520.005	33.74
520.46	33.47
520.915	34.05
521.37	34.03
521.825	34.16
522.28	33.37
522.734	34.01
523.189	35.41
523.644	34.16
524.099	33.84
524.553	33.21
525.008	35.24
525.462	33.54
525.917	34.34
526.372	35.34
526.826	36.38
527.281	32.99
527.735	35.48
528.19	34
528.644	34.48
529.098	33.49
529.553	35.22
530.007	34.98
530.461	36.6
530.916	35.27
531.37	34.06
531.824	35.74
532.278	36.95
532.732	37.29
533.186	33.96
533.641	36.56
534.095	37.48
534.549	34.13
535.003	36.49
535.457	34.38
535.911	38.8
536.365	38.55
536.818	37.59
537.272	36.38
537.726	35.53
538.18	36.19
538.634	36.39
539.087	36.87
539.541	37.31
539.995	38.54
540.449	38.22
540.902	35.93
541.356	37.24
541.809	37.28
542.263	34.43
542.716	38.36
543.17	39.2
543.623	36.3
544.077	37.91
544.53	38.45
544.984	37.02
545.437	37.79
545.89	38.77
546.344	36.91
546.797	37.32
547.25	38.45
547.703	40.32
548.157	38.75
548.61	38.5
549.063	38.58
549.516	39.66
549.969	38.72
550.422	39.14
550.875	36.93
551.328	41.06
551.781	38.72
552.234	40.16
552.687	39.77
553.14	39.09
553.592	39.45
554.045	38.31
554.498	40.15
554.951	40.16
555.404	40.7
555.856	41.59
556.309	39.65
556.762	40.75
557.214	40.45
557.667	39.48
558.119	41.14
558.572	40.17
559.024	41.11
559.477	37.97
559.929	40.95
560.382	40.8
560.834	39.15
561.286	42.76
561.739	41.31
562.191	40.67
562.643	40.46
563.095	42.12
563.548	39.1
564	40.56
564.452	43.11
564.904	39.75
565.356	41.26
565.808	41.47
566.26	39.91
566.712	40.53
567.164	40.91
567.616	39.24
568.068	38.88
568.52	39.37
568.972	38.02
569.424	39.42
569.876	38.48
570.327	38.82
570.779	40.44
571.231	41.15
571.682	40.28
572.134	39.14
572.586	40.56
573.037	39.31
573.489	41.85
573.941	38.17
574.392	38.87
574.844	38.44
575.295	38.37
575.746	38.29
576.198	37.9
576.649	39.31
577.101	40.11
577.552	39.41
578.003	37.7
578.454	38.08
578.906	39.5
579.357	37.42
579.808	39.21
580.259	38.68
580.71	39.23
581.161	38.8
581.612	38.7
582.064	41.06
582.515	40.66
582.965	37.69
583.416	39.81
583.867	39.94
584.318	41.06
584.769	42.36
585.22	39.81
585.671	41.62
586.122	39.44
586.572	43.34
587.023	41.9
587.474	40.31
587.924	41.75
588.375	40.19
588.826	42.97
589.276	41.33
589.727	40.89
590.177	40.87
590.628	41.82
591.078	41.13
591.529	41.58
591.979	42.72
592.429	41.96
592.88	42.22
593.33	42.64
593.78	40.82
594.231	42.36
594.681	41.71
595.131	41.59
595.581	43.96
596.031	41.67
596.481	41.65
596.932	41.99
597.382	42.35
597.832	42.73
598.282	41.95
598.732	43.52
599.182	40.95
599.632	44.74
600.081	42.38
600.531	42.28
600.981	43.82
601.431	41.37
601.881	41.79
602.33	41.37
602.78	42.71
603.23	41.84
603.679	42.02
604.129	41.47
604.579	41.04
605.028	44.05
605.478	44.68
605.927	42.61
606.377	43
606.826	41.51
607.276	41.12
607.725	42.99
608.175	42.28
608.624	42.33
609.073	41.46
609.522	42.98
609.972	42.99
610.421	43.04
610.87	41.96
611.319	41.19
611.768	41.28
612.218	43.61
612.667	42.73
613.116	43.44
613.565	43.79
614.014	42.25
614.463	42.93
614.912	42.67
615.361	43.47
615.81	42.89
616.258	42.53
616.707	43.32
617.156	42.49
617.605	41.88
618.054	43.7
618.502	42.32
618.951	42.3
619.4	42.74
619.848	41.17
620.297	42.13
620.745	41.06
621.194	42.4
621.642	42.95
622.091	42.38
622.539	41.82
622.988	42.08
623.436	43.52
623.885	41.86
624.333	42.81
624.781	41.63
625.23	42.57
625.678	44.19
626.126	42.49
626.574	41.84
627.022	42.16
627.471	45.24
627.919	42.31
628.367	43.4
628.815	43.03
629.263	43.31
629.711	42.71
630.159	42.18
630.607	41.95
631.055	42.8
631.503	42.83
631.95	41.38
632.398	43.72
632.846	43.63
633.294	42.23
633.742	43.68
634.189	43.54
634.637	42.47
635.085	41.88
635.532	42.9
635.98	42.86
636.427	43.04
636.875	42.51
637.323	43.19
637.77	42.54
638.217	42.58
638.665	43.02
639.112	41.88
639.56	41.73
640.007	42.92
640.454	42.04
640.902	43.41
641.349	42.62
641.796	41.73
642.243	43.36
642.69	44.13
643.138	43.32
643.585	42.94
644.032	42.3
644.479	42.96
644.926	43.54
645.373	41.58
645.82	42.75
646.267	42.77
646.714	43.37
647.161	42.59
647.607	43.03
648.054	42.37
648.501	42.95
648.948	42.29
649.395	40.45
649.841	44.81
650.288	42.93
650.735	43.68
651.181	43.66
651.628	44.32
652.075	43.78
652.521	42.3
652.968	42.71
653.414	42.35
653.861	42.56
654.307	43.61
654.753	43.18
655.2	41.78
655.646	43.43
656.092	43.6
656.539	44.51
656.985	43.14
657.431	43.88
657.877	43.23
658.324	44.68
658.77	43.09
659.216	43.01
659.662	44.12
660.108	43.49
660.554	43.51
661	43.4
661.446	43.06
661.892	42.8
662.338	43.37
662.784	42.83
663.23	42.04
663.675	43.7
664.121	43.46
664.567	43.83
665.013	43.15
665.458	42.1
665.904	43.16
666.35	43.4
666.795	43.05
667.241	42.15
667.687	42.32
668.132	43.4
668.578	41.17
669.023	42.8
669.469	44.2
669.914	42.87
670.359	43.14
670.805	43.17
671.25	42.43
671.695	43.27
672.141	43.99
672.586	42.62
673.031	45.15
673.476	43.3
673.922	43.68
674.367	43.02
674.812	43.07
675.257	42.25
675.702	43.16
676.147	42.68
676.592	43.88
677.037	43.15
677.482	43.24
677.927	43.12
678.372	41.98
678.817	42.87
679.261	43.3
679.706	41.96
680.151	42.36
680.596	42.01
681.04	42.55
681.485	43.46
681.93	43.4
682.374	43.82
682.819	43.56
683.264	43.43
683.708	43.22
684.153	44.03
684.597	43.5
685.042	44.46
685.486	42.69
685.93	42.84
686.375	43.61
686.819	42.39
687.263	42.6
687.708	43.22
688.152	43.27
688.596	43.42
689.04	43.83
689.485	42.56
689.929	43.91
690.373	43.17
690.817	42.7
691.261	43.38
691.705	44.89
692.149	42.93
692.593	43.54
693.037	43.24
693.481	42.69
693.925	42.76
694.369	44.13
694.812	44.46
695.256	43.04
695.7	43.09
696.144	43.97
696.587	43.78
697.031	43.82
697.475	43.54
697.918	43.86
698.362	43.03
698.806	43.99
699.249	43.98
699.693	42.79
700.136	41.55
700.58	42.83
701.023	43.35
701.466	43.64
701.91	43.31
702.353	43.35
702.796	44.27
703.24	42.94
703.683	42.82
704.126	43.07
704.569	43.09
705.013	43.12
705.456	42.73
705.899	44.51
706.342	42.55
706.785	42.94
707.228	43.84
707.671	43.1
708.114	44.58
708.557	41.52
709	43.81
709.443	43.58
709.886	43.42
710.328	43.28
710.771	42.69
711.214	43.14
711.657	43.14
712.099	43.49
712.542	43.24
712.985	42.28
713.427	42.56
713.87	44.08
714.313	42.94
714.755	42.69
715.198	42.89
715.64	43.19
716.083	44.56
716.525	42.81
716.967	42.77
717.41	43.53
717.852	42.56
718.295	42.94
718.737	41.88
719.179	43.35
719.621	42.46
720.063	44.35
720.506	42.61
720.948	42.23
721.39	43.68
721.832	44.75
722.274	43.04
722.716	43.38
723.158	43.74
723.6	43.25
724.042	43.16
724.484	43.26
724.926	43.69
725.368	42.69
725.81	43.61
726.251	42.92
726.693	42.89
727.135	43.85
727.577	44.41
728.018	43.19
728.46	42.83
728.902	44.07
729.343	43.6
729.785	43.21
730.226	43.17
730.668	43.1
731.109	44.28
731.551	42.64
731.992	43.23
732.434	44.23
732.875	44.06
733.316	42.5
733.758	42.85
734.199	43.64
734.64	43.45
735.081	43.08
735.523	43.89
735.964	44.57
736.405	43.04
736.846	43.64
737.287	43.64
737.728	42.87
738.169	42.79
738.61	43.56
739.051	43.85
739.492	44.34
739.933	43.52
740.374	43.1
740.815	44.42
741.256	43.29
741.696	44.44
742.137	42.81
742.578	44.5
743.019	43.9
743.459	44.01
743.9	43.75
744.341	42.94
744.781	43.74
745.222	43.35
745.662	42.77
746.103	43.83
746.543	44.11
746.984	43.34
747.424	44.79
747.865	44.49
748.305	44.07
748.745	43.59
749.186	43.66
749.626	43.48
750.066	44.28
750.506	43.85
750.947	44.06
751.387	43.74
751.827	43.73
752.267	44.04
752.707	43.75
753.147	42.19
753.587	43.71
754.027	44.58
754.467	44.38
754.907	43.46
755.347	43.28
755.787	43.67
756.227	43.76
756.667	43.77
757.107	43.5
757.546	43.77
757.986	43.72
758.426	43.58
758.865	43.42
759.305	43.32
759.745	42.46
760.184	43.26
760.624	42.99
761.063	44.17
761.503	43.69
761.943	42.82
762.382	43.79
762.821	43.59
763.261	44.78
763.7	42.93
764.14	44.49
764.579	43.67
765.018	42.82
765.457	44.16
765.897	43.78
766.336	44.23
766.775	43.73
767.214	42.29
767.653	43.43
768.092	43.44
768.531	44.19
768.97	44.41
769.409	43.14
769.848	44.31
770.287	43.71
770.726	43.66
771.165	42.88
771.604	43.66
772.043	44.15
772.482	43.79
772.92	44.22
773.359	43.63
773.798	43.34
774.237	43.61
774.675	43.34
775.114	43.85
775.553	44.15
775.991	43.83
776.43	41.39
776.868	43.3
777.307	43.41
777.745	43.5
778.184	43.94
778.622	43.59
779.06	43.49
779.499	43.82
779.937	44.19
780.375	43.37
780.814	44.77
781.252	43.05
781.69	44.84
782.128	44.87
782.566	43.16
783.004	43.35
783.443	43.92
783.881	43.65
784.319	44.3
784.757	42.98
785.195	43.01
785.633	43.69
786.071	44.35
786.508	44.17
786.946	44.12
787.384	42.5
787.822	42.97
788.26	43.58
788.697	43.21
789.135	43.61
789.573	42.95
790.011	44.17
790.448	43.38
790.886	43.91
791.323	43.85
791.761	43.44
792.198	43.69
792.636	43.3
793.073	44.19
793.511	43.78
793.948	45.44
794.386	44.64
794.823	44.44
795.26	44.11
795.698	43.95
796.135	43.91
796.572	43.64
797.009	43.91
797.446	43.7
797.884	43.44
798.321	43.79
798.758	43.66
799.195	43.59
799.632	43.82
800.069	44.23
800.506	44.24
800.943	44.39
801.38	44.42
801.817	43.28
802.254	44.06
802.69	43.59
803.127	45.46
803.564	44.49
804.001	44.12
