Data from JCR0018_BlackVentral_Reflection_00001.txt Node
Date: Thu Jul 23 16:29:28 ACST 2020
User: Stacey Dix
Spectrometer: MAYP113282
Scans to average: 1
Trigger mode: 0
Integration Time (sec): 1.000000E-1
Electric dark correction enabled: true
Boxcar width: 0
XAxis mode: Wavelengths
Number of Pixels in Spectrum: 2068
>>>>>Begin Spectral Data<<<<<
198.791	-166.67
199.266	-233.33
199.74	83.33
200.215	0
200.69	-1.83
201.164	-7.51
201.639	-8.06
202.114	5.95
202.588	-8.96
203.063	11.24
203.537	-3.03
204.012	21.94
204.486	-2.36
204.961	2.24
205.435	-12.82
205.909	2.96
206.384	-15.29
206.858	7.17
207.332	-7.35
207.807	-17.09
208.281	16.17
208.755	4.2
209.229	0.58
209.703	16.78
210.177	-6.17
210.651	-10.02
211.126	7.9
211.6	7.68
212.074	5.18
212.548	12.53
213.021	-4.79
213.495	19.62
213.969	-4.79
214.443	-4.68
214.917	7.32
215.391	11.28
215.864	2.13
216.338	3.68
216.812	12.78
217.286	0.34
217.759	19.94
218.233	13.03
218.706	8.78
219.18	2.3
219.654	-0.14
220.127	4.99
220.6	4.07
221.074	4.02
221.547	12.18
222.021	8.36
222.494	6.69
222.967	5.41
223.441	-1.49
223.914	11.98
224.387	2.65
224.86	8.85
225.334	4.97
225.807	5.21
226.28	5.36
226.753	4.04
227.226	5.91
227.699	9.93
228.172	2.58
228.645	7.04
229.118	5.21
229.591	5.53
230.064	3.7
230.537	5.75
231.01	5.85
231.482	6.55
231.955	8.42
232.428	4.39
232.901	3.82
233.373	6.12
233.846	3.87
234.319	7.11
234.791	4.92
235.264	6.01
235.736	5.29
236.209	5.4
236.681	5.35
237.154	4.91
237.626	5.7
238.099	4.7
238.571	7.14
239.044	4.85
239.516	6.13
239.988	5.07
240.46	6.76
240.933	5.06
241.405	6.32
241.877	4.03
242.349	5.9
242.821	5.45
243.293	4.82
243.765	5.42
244.237	5.52
244.71	5.6
245.181	5.13
245.653	4.76
246.125	5.35
246.597	5.16
247.069	4.76
247.541	6.01
248.013	5.98
248.485	4.99
248.956	4.46
249.428	4.56
249.9	5.24
250.371	5.26
250.843	5.52
251.315	3.92
251.786	5.12
252.258	4.49
252.729	5.07
253.201	5.28
253.672	5.18
254.144	4.5
254.615	4.45
255.086	4.93
255.558	4.48
256.029	5.1
256.5	4.8
256.972	4.9
257.443	4.44
257.914	4.16
258.385	4.79
258.856	4.82
259.327	4.69
259.799	4.2
260.27	4.44
260.741	4.39
261.212	4.2
261.683	4.27
262.154	4.7
262.624	4.51
263.095	4.5
263.566	5.16
264.037	5.08
264.508	3.97
264.979	4.73
265.449	4.27
265.92	3.97
266.391	4.37
266.861	4.41
267.332	4.29
267.803	4.03
268.273	4.48
268.744	4.08
269.214	3.95
269.685	4.22
270.155	3.85
270.626	4.23
271.096	3.74
271.566	3.96
272.037	4.82
272.507	4.93
272.977	3.45
273.448	2.63
273.918	4.49
274.388	4.87
274.858	3.51
275.328	4.11
275.798	4.23
276.268	4.3
276.738	3.99
277.208	3.24
277.678	4.37
278.148	4.09
278.618	3.57
279.088	3.78
279.558	4.1
280.028	5.06
280.498	4.43
280.968	4.29
281.437	4.73
281.907	3.94
282.377	4.29
282.847	3.66
283.316	4.5
283.786	3.78
284.255	4.06
284.725	3.68
285.194	4.28
285.664	4.41
286.133	3.57
286.603	3.37
287.072	3.86
287.542	4.46
288.011	4.15
288.48	3.56
288.95	4.49
289.419	3.86
289.888	4.35
290.357	3.4
290.827	3.49
291.296	4.27
291.765	4.21
292.234	4.14
292.703	3.01
293.172	2.89
293.641	3.75
294.11	3.59
294.579	3.52
295.048	4.25
295.517	3.6
295.986	3.67
296.455	3.11
296.923	2.96
297.392	4.13
297.861	3.23
298.33	3.39
298.798	2.97
299.267	3.19
299.736	3.35
300.204	2.98
300.673	3.01
301.141	3.45
301.61	3.72
302.079	3.07
302.547	4.16
303.015	3.66
303.484	3.37
303.952	4.15
304.421	3.02
304.889	4.04
305.357	3.18
305.825	3.16
306.294	3.3
306.762	3.38
307.23	3.06
307.698	3.32
308.166	3.09
308.634	2.92
309.103	3.06
309.571	2.38
310.039	3.21
310.507	3.57
310.975	2.98
311.442	3.03
311.91	3.38
312.378	2.91
312.846	2.75
313.314	3.24
313.782	2.75
314.249	3.7
314.717	3.2
315.185	3.34
315.652	3.06
316.12	2.86
316.588	3.57
317.055	2.59
317.523	2.81
317.99	3.22
318.458	3.53
318.925	3.27
319.393	2.72
319.86	2.42
320.328	3.45
320.795	2.99
321.262	3.55
321.73	3.02
322.197	3.72
322.664	1.92
323.131	2.79
323.598	2.71
324.066	2.88
324.533	2.78
325	2.51
325.467	3.52
325.934	2.76
326.401	2.24
326.868	2.76
327.335	3.42
327.802	2.56
328.269	2.51
328.735	2.58
329.202	2.87
329.669	3.29
330.136	3.23
330.603	2.42
331.069	3.06
331.536	3.01
332.003	2.5
332.469	2.96
332.936	2.8
333.402	2.46
333.869	2.28
334.336	2.75
334.802	3.2
335.268	3
335.735	2.46
336.201	2.4
336.668	2.51
337.134	1.47
337.6	2.12
338.067	2.41
338.533	3.13
338.999	2.01
339.465	2.31
339.931	2.73
340.398	2.09
340.864	2.39
341.33	1.91
341.796	2.17
342.262	2.75
342.728	3.05
343.194	2.01
343.66	2.75
344.126	3.16
344.592	2.16
345.057	2.49
345.523	2.76
345.989	2.59
346.455	3.09
346.921	2.75
347.386	2.98
347.852	1.96
348.318	2.77
348.783	2.43
349.249	2.41
349.714	2.46
350.18	2.42
350.645	1.66
351.111	2.02
351.576	2.63
352.042	1.97
352.507	2.54
352.973	2.31
353.438	2.45
353.903	2.67
354.369	2.43
354.834	2.83
355.299	2.88
355.764	1.99
356.229	2.7
356.695	1.85
357.16	2.26
357.625	2.2
358.09	2.04
358.555	2.83
359.02	2.23
359.485	2.67
359.95	2.02
360.415	2.11
360.879	2.07
361.344	1.75
361.809	2.63
362.274	2.38
362.739	1.92
363.203	2.81
363.668	2.74
364.133	2.18
364.597	3.05
365.062	1.87
365.527	1.58
365.991	2.49
366.456	2.17
366.92	1.86
367.385	1.91
367.849	1.91
368.314	2.4
368.778	2.3
369.242	1.81
369.707	2.09
370.171	2.19
370.635	3.24
371.1	2.48
371.564	2.33
372.028	2.96
372.492	3.46
372.956	2.19
373.42	2.05
373.884	2.4
374.348	2.47
374.812	2.75
375.276	2.82
375.74	2.4
376.204	3.11
376.668	2.64
377.132	2.09
377.596	1.98
378.06	2.36
378.524	2.28
378.987	1.92
379.451	2.8
379.915	2.14
380.378	2.52
380.842	2.01
381.306	2.75
381.769	2.33
382.233	2.86
382.696	2.2
383.16	2.27
383.623	2.3
384.087	2.13
384.55	2.68
385.014	2.8
385.477	2.03
385.94	2.73
386.404	2.47
386.867	2.04
387.33	2.93
387.793	2.3
388.256	2.57
388.72	3
389.183	1.97
389.646	2.87
390.109	2.28
390.572	2.75
391.035	1.78
391.498	2.49
391.961	2.49
392.424	3.16
392.887	2.85
393.35	2.2
393.812	2.07
394.275	2.5
394.738	3.08
395.201	2.47
395.664	2.84
396.126	1.79
396.589	2.14
397.052	2.37
397.514	2.59
397.977	2.09
398.439	2.75
398.902	2.4
399.364	2.04
399.827	2.7
400.289	2.87
400.752	2.68
401.214	2.23
401.676	2.88
402.139	2.54
402.601	2.16
403.063	2.65
403.525	2.38
403.988	2.47
404.45	2.39
404.912	3.02
405.374	1.83
405.836	2.66
406.298	2.47
406.76	2.33
407.222	2.25
407.684	2.06
408.146	2.81
408.608	2.55
409.07	2.64
409.532	2.33
409.994	2.91
410.456	2.71
410.917	2.17
411.379	2.85
411.841	2.7
412.303	2.52
412.764	3.06
413.226	2.12
413.687	2.79
414.149	2.27
414.611	2.43
415.072	2.74
415.534	2.04
415.995	2.19
416.457	2.54
416.918	2.29
417.379	2.25
417.841	2.41
418.302	3.08
418.763	2.87
419.225	2.42
419.686	1.72
420.147	2.33
420.608	2.84
421.069	2.37
421.53	2.26
421.991	2.98
422.453	2.13
422.914	2.42
423.375	1.68
423.836	1.81
424.297	2.52
424.757	2.52
425.218	2.14
425.679	2.19
426.14	3.4
426.601	2.08
427.062	1.82
427.522	2.49
427.983	2.61
428.444	2.54
428.904	2.2
429.365	1.64
429.826	3.47
430.286	2.87
430.747	3.65
431.207	2.15
431.668	3.76
432.128	2.9
432.589	3.3
433.049	2.66
433.509	3.34
433.97	2.9
434.43	4.2
434.89	2.21
435.351	3.99
435.811	2.89
436.271	0.77
436.731	3.35
437.191	2.68
437.651	1.93
438.112	3.03
438.572	1.68
439.032	2
439.492	3.58
439.952	3.2
440.412	2.7
440.871	2.66
441.331	3.46
441.791	2.48
442.251	4.53
442.711	3.23
443.171	4.18
443.63	2.64
444.09	2.01
444.55	3.1
445.009	2.79
445.469	2.97
445.929	2.89
446.388	2.76
446.848	2.81
447.307	3
447.767	3.33
448.226	2.65
448.686	3.5
449.145	2.04
449.604	2.59
450.064	2.83
450.523	3.35
450.982	2.65
451.442	2.53
451.901	3.65
452.36	3.54
452.819	3.18
453.278	2.58
453.737	2.72
454.197	2.77
454.656	2.38
455.115	1.36
455.574	3.7
456.033	3.38
456.492	3.02
456.95	3.66
457.409	3.56
457.868	2.49
458.327	2.26
458.786	1.59
459.245	2.43
459.703	2.92
460.162	3.04
460.621	3.19
461.079	2.16
461.538	2.97
461.997	2.54
462.455	3.79
462.914	1.79
463.372	2.93
463.831	2.78
464.289	3.22
464.748	2.22
465.206	3.46
465.664	2.45
466.123	3.33
466.581	2.93
467.039	2.58
467.497	2.36
467.956	2.64
468.414	2.38
468.872	3.05
469.33	4.37
469.788	3.89
470.246	2.19
470.704	2.96
471.162	2.51
471.62	3.84
472.078	2.19
472.536	3.45
472.994	2.17
473.452	3.29
473.91	2.49
474.368	3.62
474.826	3.72
475.283	1.72
475.741	2.84
476.199	3.03
476.656	3.36
477.114	3.12
477.572	1.86
478.029	1.53
478.487	3.07
478.944	2.17
479.402	3.24
479.859	2.63
480.317	1.11
480.774	3.8
481.232	3.37
481.689	3.59
482.146	4.08
482.604	1.93
483.061	3.33
483.518	2.65
483.975	4.81
484.433	2.13
484.89	3.08
485.347	3.6
485.804	2.28
486.261	1.54
486.718	4.23
487.175	3.15
487.632	3.44
488.089	2.1
488.546	4.43
489.003	3.48
489.46	3.18
489.917	2.77
490.373	4.8
490.83	2.69
491.287	2.91
491.744	3.12
492.2	3.19
492.657	2.44
493.114	3.38
493.57	2.26
494.027	3.55
494.484	2.07
494.94	3.09
495.397	2.64
495.853	2.36
496.31	2.84
496.766	3.6
497.222	3.13
497.679	3.17
498.135	2.98
498.591	2.42
499.048	3.71
499.504	1.8
499.96	3.28
500.416	4.49
500.872	3.54
501.329	3.45
501.785	2.36
502.241	3.17
502.697	3.05
503.153	3.57
503.609	3.05
504.065	2.98
504.521	3.15
504.977	2.73
505.432	2.14
505.888	4.65
506.344	2.88
506.8	4.15
507.256	3.85
507.711	3.98
508.167	3.37
508.623	2.91
509.078	3.57
509.534	3.17
509.99	3
510.445	3.18
510.901	3.66
511.356	3.88
511.812	4.3
512.267	4.51
512.722	3.24
513.178	3.71
513.633	3.53
514.089	3.91
514.544	3.31
514.999	3.57
515.454	3.13
515.91	3.2
516.365	3.02
516.82	3.06
517.275	4.27
517.73	3.32
518.185	3.07
518.64	3.44
519.095	3.46
519.55	3.75
520.005	4.02
520.46	4.3
520.915	4.39
521.37	3.18
521.825	3.17
522.28	3
522.734	3.78
523.189	4.33
523.644	2.96
524.099	4.67
524.553	4.3
525.008	3.45
525.462	3.89
525.917	4.26
526.372	3.14
526.826	4.28
527.281	2.81
527.735	4.14
528.19	3.18
528.644	4.16
529.098	4.63
529.553	3.62
530.007	4.1
530.461	3.47
530.916	3.83
531.37	3.55
531.824	3.45
532.278	3.03
532.732	3.53
533.186	4.04
533.641	3.5
534.095	3.2
534.549	4.91
535.003	3.69
535.457	4.99
535.911	3.36
536.365	4.51
536.818	3.72
537.272	2.45
537.726	3.11
538.18	4.98
538.634	3.92
539.087	3.97
539.541	3.39
539.995	3.91
540.449	3.91
540.902	4.84
541.356	3.77
541.809	2.34
542.263	3.24
542.716	4.09
543.17	3.66
543.623	3.48
544.077	4.56
544.53	3.61
544.984	4.71
545.437	3.57
545.89	2.95
546.344	3.81
546.797	3.54
547.25	3.97
547.703	2.93
548.157	4.41
548.61	2.86
549.063	4.73
549.516	3
549.969	4
550.422	3.87
550.875	3.28
551.328	3.03
551.781	3.38
552.234	3.95
552.687	2.8
553.14	3.62
553.592	4.01
554.045	3.77
554.498	4.03
554.951	3.67
555.404	4.01
555.856	4.16
556.309	2.78
556.762	3.34
557.214	4.83
557.667	4.05
558.119	4.28
558.572	3.23
559.024	4.68
559.477	4.49
559.929	4.26
560.382	3.62
560.834	4.82
561.286	3.81
561.739	3.23
562.191	3.91
562.643	3.69
563.095	4.69
563.548	4.35
564	4.44
564.452	4.41
564.904	4.38
565.356	4.74
565.808	3.91
566.26	3.88
566.712	3.8
567.164	4.31
567.616	4.34
568.068	4.99
568.52	4.43
568.972	4.73
569.424	4.11
569.876	3.99
570.327	4
570.779	4.73
571.231	4.78
571.682	4.57
572.134	4.11
572.586	4.23
573.037	4.15
573.489	4.45
573.941	4.38
574.392	4.38
574.844	4.89
575.295	4.36
575.746	4.68
576.198	4.53
576.649	4.34
577.101	4.76
577.552	4.14
578.003	4.44
578.454	3.83
578.906	4.1
579.357	4.35
579.808	4.79
580.259	4.09
580.71	4.6
581.161	4.91
581.612	4.31
582.064	5.05
582.515	4.62
582.965	5.1
583.416	5.15
583.867	4.52
584.318	4.58
584.769	4.8
585.22	4.46
585.671	4.24
586.122	4.12
586.572	4.63
587.023	4.37
587.474	4.12
587.924	4.11
588.375	3.95
588.826	4.38
589.276	4.34
589.727	5.1
590.177	5.09
590.628	4.44
591.078	4.38
591.529	4.64
591.979	4.57
592.429	4.31
592.88	4.65
593.33	5.31
593.78	5.2
594.231	4.63
594.681	4.22
595.131	4.98
595.581	4.8
596.031	4.63
596.481	5.33
596.932	4.76
597.382	4.79
597.832	4.6
598.282	5.16
598.732	5.08
599.182	3.92
599.632	4.36
600.081	4.24
600.531	4.22
600.981	4.42
601.431	5.17
601.881	5.08
602.33	5.08
602.78	4.83
603.23	4.52
603.679	4.55
604.129	5.34
604.579	5.14
605.028	4.61
605.478	5.11
605.927	4.76
606.377	5.33
606.826	4.6
607.276	5.38
607.725	5.19
608.175	5.08
608.624	4.32
609.073	4.92
609.522	5.27
609.972	5.68
610.421	4.88
610.87	5.36
611.319	4.96
611.768	4.74
612.218	4.69
612.667	4.86
613.116	4.91
613.565	4.92
614.014	5.08
614.463	5.07
614.912	5.05
615.361	5.31
615.81	5.52
616.258	5.44
616.707	5.49
617.156	4.69
617.605	4.9
618.054	5.34
618.502	5.35
618.951	4.86
619.4	5.19
619.848	5.38
620.297	5.07
620.745	5.37
621.194	5.21
621.642	5.22
622.091	5.31
622.539	4.85
622.988	5.32
623.436	5.01
623.885	5.07
624.333	4.87
624.781	4.98
625.23	5.34
625.678	5.03
626.126	5.16
626.574	5.31
627.022	5.24
627.471	5.5
627.919	5.63
628.367	5.28
628.815	5.17
629.263	5.62
629.711	4.97
630.159	5.71
630.607	5.37
631.055	5.67
631.503	5.33
631.95	5.45
632.398	5.11
632.846	5.19
633.294	5.31
633.742	5.28
634.189	5.35
634.637	5.36
635.085	5.36
635.532	5.51
635.98	5.31
636.427	5.39
636.875	5.52
637.323	5.37
637.77	5.55
638.217	5.78
638.665	5.54
639.112	5.41
639.56	5.07
640.007	5.39
640.454	5.36
640.902	5.82
641.349	5.32
641.796	5.39
642.243	5.28
642.69	5.71
643.138	5.71
643.585	5.52
644.032	5.46
644.479	5.41
644.926	5.5
645.373	5.73
645.82	5.35
646.267	5.47
646.714	6.34
647.161	5.4
647.607	5.8
648.054	5.8
648.501	5.85
648.948	5.41
649.395	6.16
649.841	5.84
650.288	5.75
650.735	5.66
651.181	5.43
651.628	5.96
652.075	6.08
652.521	5.88
652.968	5.49
653.414	5.7
653.861	6.04
654.307	5.9
654.753	5.87
655.2	5.51
655.646	5.71
656.092	5.62
656.539	6.02
656.985	5.83
657.431	5.7
657.877	5.53
658.324	5.87
658.77	5.99
659.216	5.8
659.662	5.82
660.108	5.77
660.554	5.93
661	6.1
661.446	5.89
661.892	5.73
662.338	5.87
662.784	5.9
663.23	5.85
663.675	5.63
664.121	5.77
664.567	5.95
665.013	5.77
665.458	6.31
665.904	6.04
666.35	5.61
666.795	5.86
667.241	5.85
667.687	6.18
668.132	6.1
668.578	6.17
669.023	6.33
669.469	6.25
669.914	5.89
670.359	5.9
670.805	6.18
671.25	6.04
671.695	6.1
672.141	6.14
672.586	6.07
673.031	6.56
673.476	5.79
673.922	6.3
674.367	5.73
674.812	6
675.257	6.41
675.702	6.39
676.147	6.11
676.592	6.11
677.037	6.14
677.482	6.36
677.927	6.45
678.372	6.17
678.817	6.63
679.261	6.34
679.706	6.17
680.151	6.26
680.596	6.5
681.04	6.41
681.485	6.1
681.93	6.18
682.374	6.03
682.819	6.03
683.264	6.14
683.708	6.4
684.153	6.57
684.597	6.39
685.042	6.15
685.486	6.28
685.93	6.43
686.375	6.23
686.819	6.45
687.263	6.61
687.708	6.32
688.152	6.37
688.596	6.49
689.04	6.19
689.485	6.7
689.929	6.48
690.373	6.47
690.817	6.54
691.261	6.49
691.705	6.23
692.149	6.22
692.593	6.37
693.037	6.49
693.481	6.54
693.925	6.26
694.369	6.63
694.812	6.81
695.256	6.04
695.7	6.46
696.144	6.63
696.587	6.68
697.031	6.53
697.475	6.49
697.918	6.64
698.362	6.55
698.806	6.55
699.249	6.6
699.693	6.55
700.136	6.48
700.58	6.69
701.023	6.38
701.466	6.76
701.91	6.85
702.353	6.49
702.796	6.8
703.24	6.67
703.683	6.62
704.126	6.82
704.569	6.88
705.013	6.74
705.456	6.71
705.899	6.88
706.342	6.93
706.785	7.17
707.228	6.43
707.671	6.64
708.114	7.2
708.557	6.83
709	6.94
709.443	6.82
709.886	6.48
710.328	6.79
710.771	6.77
711.214	7.27
711.657	6.6
712.099	6.97
712.542	6.49
712.985	6.43
713.427	6.98
713.87	6.79
714.313	7.31
714.755	6.92
715.198	7.09
715.64	7.21
716.083	7.25
716.525	7.15
716.967	6.7
717.41	6.75
717.852	6.88
718.295	6.88
718.737	6.98
719.179	7.13
719.621	7.14
720.063	7.1
720.506	7.18
720.948	7.15
721.39	7.11
721.832	7.5
722.274	7.13
722.716	7.16
723.158	7.03
723.6	6.69
724.042	6.92
724.484	7.25
724.926	6.72
725.368	7.06
725.81	7.23
726.251	7.53
726.693	7.17
727.135	7.16
727.577	7.02
728.018	7.11
728.46	6.64
728.902	7.05
729.343	7.44
729.785	6.87
730.226	7.27
730.668	7.22
731.109	7.17
731.551	7.25
731.992	7.57
732.434	7.54
732.875	7.53
733.316	7.05
733.758	7.17
734.199	7.45
734.64	7.23
735.081	7.31
735.523	7.49
735.964	7.07
736.405	7.29
736.846	7.08
737.287	6.92
737.728	7.15
738.169	7.79
738.61	6.73
739.051	7.55
739.492	7.46
739.933	7.58
740.374	7.59
740.815	7.24
741.256	7.23
741.696	7.4
742.137	7.56
742.578	7.21
743.019	7.36
743.459	7.48
743.9	7.19
744.341	7.45
744.781	7.13
745.222	7.36
745.662	7.48
746.103	7.52
746.543	7.35
746.984	7.57
747.424	7.3
747.865	7.82
748.305	7.59
748.745	7.58
749.186	7.87
749.626	7.91
750.066	7.6
750.506	7.91
750.947	7.3
751.387	7.87
751.827	7.32
752.267	7.73
752.707	7.38
753.147	7.62
753.587	7.77
754.027	7.69
754.467	7.69
754.907	7.85
755.347	7.22
755.787	7.58
756.227	7.68
756.667	7.97
757.107	7.94
757.546	7.75
757.986	7.74
758.426	7.71
758.865	7.67
759.305	7.34
759.745	7.74
760.184	8.17
760.624	7.75
761.063	8.18
761.503	7.72
761.943	8.1
762.382	7.82
762.821	7.75
763.261	7.89
763.7	8.1
764.14	7.96
764.579	8.2
765.018	8
765.457	8.06
765.897	7.81
766.336	8.08
766.775	7.89
767.214	7.89
767.653	8
768.092	8.06
768.531	8.4
768.97	7.86
769.409	8.47
769.848	8.11
770.287	8.19
770.726	8.27
771.165	8.21
771.604	8.26
772.043	7.95
772.482	8.13
772.92	8.05
773.359	8.1
773.798	7.98
774.237	7.95
774.675	8.43
775.114	8.21
775.553	8.37
775.991	8.13
776.43	8.19
776.868	8.2
777.307	8.43
777.745	8.19
778.184	8.42
778.622	8.27
779.06	8.26
779.499	8.32
779.937	8.24
780.375	8.26
780.814	8.47
781.252	7.95
781.69	8.47
782.128	8.11
782.566	8.42
783.004	8.53
783.443	8.23
783.881	8.57
784.319	8.3
784.757	8.28
785.195	8.5
785.633	8.15
786.071	8.63
786.508	8.69
786.946	8.52
787.384	8.43
787.822	8.7
788.26	8.24
788.697	8.45
789.135	8.62
789.573	8.65
790.011	8.59
790.448	8.56
790.886	8.63
791.323	8.53
791.761	8.65
792.198	8.49
792.636	8.59
793.073	8.53
793.511	8.35
793.948	8.41
794.386	8.72
794.823	8.47
795.26	8.38
795.698	8.87
796.135	8.48
796.572	8.7
797.009	8.72
797.446	8.94
797.884	9.09
798.321	8.61
798.758	8.56
799.195	8.69
799.632	8.61
800.069	8.87
800.506	8.92
800.943	8.78
801.38	8.38
801.817	8.61
802.254	8.82
802.69	8.7
803.127	9.01
803.564	8.8
804.001	9.25
804.438	8.96
804.874	8.73
805.311	8.83
805.748	8.91
806.184	8.94
806.621	8.82
807.057	8.66
807.494	8.89
807.93	8.99
808.367	8.98
808.803	8.99
809.24	8.77
809.676	8.91
810.112	8.93
810.549	9.04
810.985	8.94
811.421	8.83
811.857	8.86
812.294	9.15
812.73	8.76
813.166	9.08
813.602	9.19
814.038	9.3
814.474	8.89
814.91	9.3
815.346	8.89
815.782	9.05
816.218	9
816.654	9.12
817.09	9.15
817.526	9.06
817.962	9
818.398	9.12
818.833	9.12
819.269	9.06
819.705	9.22
820.141	9.28
820.576	8.96
821.012	9.16
821.447	9.19
821.883	9.11
822.319	9.5
822.754	9.47
823.19	9.19
823.625	9.51
824.061	9.13
824.496	9.5
824.931	9.33
825.367	9.17
825.802	8.96
826.237	9.2
826.673	9.59
827.108	9.44
827.543	9.61
827.978	9.24
828.413	9.57
828.849	9.4
829.284	9.67
829.719	9.72
830.154	9.35
830.589	9.7
831.024	9.32
831.459	9.39
831.894	9.25
832.329	9.64
832.763	9.24
833.198	9.43
833.633	9.56
834.068	9.55
834.503	9.65
834.937	9.55
835.372	9.57
835.807	9.58
836.241	9.64
836.676	9.72
837.111	9.48
837.545	9.39
837.98	9.56
838.414	9.66
838.849	9.67
839.283	9.73
839.717	9.6
840.152	9.73
840.586	9.6
841.021	9.74
841.455	9.62
841.889	9.71
842.323	9.69
842.758	9.73
843.192	9.67
843.626	9.6
844.06	10
844.494	9.58
844.928	9.77
845.362	9.94
845.796	9.92
846.23	9.94
