Data from JCR0018_BlackVentral_Reflection_00002.txt Node
Date: Thu Jul 23 16:29:29 ACST 2020
User: Stacey Dix
Spectrometer: MAYP113282
Scans to average: 1
Trigger mode: 0
Integration Time (sec): 1.000000E-1
Electric dark correction enabled: true
Boxcar width: 0
XAxis mode: Wavelengths
Number of Pixels in Spectrum: 2068
>>>>>Begin Spectral Data<<<<<
198.791	-233.33
199.266	-166.67
199.74	-33.33
200.215	0
200.69	-6.39
201.164	-9.39
201.639	2.56
202.114	16.37
202.588	-9.32
203.063	28.29
203.537	8.48
204.012	16.52
204.486	-24.92
204.961	16.25
205.435	-7.37
205.909	9.95
206.384	-6.52
206.858	2.18
207.332	-2.89
207.807	-6.44
208.281	11.44
208.755	-1.98
209.229	-11.99
209.703	4.79
210.177	2.47
210.651	-5.36
211.126	13.58
211.6	6.8
212.074	10.36
212.548	8.69
213.021	0.87
213.495	8.75
213.969	6.75
214.443	-7.68
214.917	-0.39
215.391	3.82
215.864	-10.85
216.338	2.95
216.812	10.97
217.286	-6.37
217.759	12.27
218.233	2.61
218.706	14.43
219.18	4.2
219.654	3.12
220.127	7.42
220.6	6.23
221.074	0.11
221.547	10.33
222.021	7
222.494	-1.51
222.967	7.94
223.441	-4.1
223.914	6.93
224.387	5.8
224.86	10.14
225.334	7.09
225.807	5.14
226.28	4.76
226.753	5.01
227.226	5.38
227.699	5.65
228.172	4.39
228.645	5.32
229.118	7.55
229.591	4.62
230.064	5.89
230.537	4.53
231.01	7.28
231.482	4.94
231.955	9.33
232.428	5.06
232.901	6.96
233.373	6.17
233.846	5.22
234.319	5.64
234.791	4.32
235.264	5.99
235.736	5.01
236.209	4.62
236.681	5.15
237.154	5.47
237.626	5.68
238.099	5.61
238.571	6.07
239.044	5.69
239.516	6.7
239.988	4.24
240.46	6.3
240.933	4.72
241.405	4.73
241.877	5.28
242.349	6.65
242.821	4.75
243.293	3.74
243.765	5.36
244.237	4.96
244.71	4.55
245.181	4.5
245.653	5.75
246.125	5.11
246.597	4.71
247.069	4.69
247.541	6.05
248.013	5.45
248.485	5.38
248.956	5.57
249.428	4.97
249.9	5.83
250.371	5.21
250.843	5.1
251.315	4.57
251.786	6.05
252.258	4.76
252.729	4.82
253.201	4.8
253.672	4.27
254.144	4.76
254.615	4.41
255.086	4.52
255.558	4.89
256.029	4.86
256.5	4.56
256.972	4.04
257.443	4.46
257.914	5.39
258.385	4.4
258.856	5.17
259.327	4.48
259.799	4.22
260.27	4.04
260.741	4.98
261.212	4.29
261.683	4.21
262.154	4.56
262.624	4.63
263.095	4.01
263.566	5.28
264.037	4.45
264.508	3.93
264.979	4.78
265.449	3.92
265.92	4.3
266.391	4.79
266.861	3.89
267.332	3.52
267.803	4.94
268.273	4.41
268.744	3.78
269.214	3.97
269.685	4.33
270.155	3.78
270.626	4.87
271.096	4.81
271.566	4.55
272.037	3.91
272.507	4.46
272.977	3.04
273.448	3.13
273.918	4.85
274.388	5.3
274.858	3.72
275.328	4.87
275.798	4.48
276.268	3.92
276.738	3.35
277.208	4.34
277.678	3.74
278.148	4.08
278.618	2.44
279.088	4.74
279.558	4.94
280.028	4.14
280.498	4.34
280.968	4.65
281.437	4.13
281.907	4.34
282.377	4.22
282.847	4.08
283.316	4.4
283.786	3.89
284.255	3.7
284.725	3.82
285.194	4.3
285.664	3.99
286.133	3.26
286.603	3.39
287.072	3.73
287.542	3.82
288.011	4.34
288.48	2.98
288.95	4.74
289.419	4.19
289.888	4.02
290.357	4.12
290.827	3.26
291.296	3.63
291.765	4.51
292.234	4.1
292.703	3.71
293.172	3.1
293.641	3.74
294.11	4.14
294.579	3.13
295.048	4.33
295.517	3.51
295.986	3.25
296.455	4.5
296.923	2.86
297.392	3.99
297.861	3.07
298.33	2.7
298.798	3.09
299.267	3.4
299.736	3.74
300.204	2.72
300.673	3.03
301.141	3.69
301.61	3.74
302.079	3.34
302.547	4.15
303.015	4.11
303.484	3.36
303.952	3.86
304.421	2.89
304.889	3.6
305.357	3.41
305.825	3.24
306.294	3.48
306.762	3.87
307.23	3.3
307.698	3.95
308.166	3.27
308.634	2.97
309.103	2.95
309.571	3.32
310.039	3.02
310.507	3.24
310.975	3.11
311.442	3.45
311.91	3.51
312.378	2.93
312.846	3.88
313.314	3.14
313.782	2.4
314.249	3.12
314.717	3.25
315.185	3.36
315.652	3.1
316.12	3.71
316.588	3.59
317.055	2.85
317.523	2.45
317.99	2.67
318.458	3.07
318.925	3.78
319.393	2.74
319.86	3.14
320.328	3.53
320.795	2.61
321.262	3.78
321.73	2.55
322.197	2.77
322.664	2.79
323.131	2.9
323.598	2.55
324.066	3.05
324.533	2.8
325	2.77
325.467	3.14
325.934	2.48
326.401	2.08
326.868	2.39
327.335	3.09
327.802	3.07
328.269	2.56
328.735	3.03
329.202	3
329.669	3.23
330.136	2.83
330.603	2.17
331.069	2.6
331.536	2.86
332.003	2.55
332.469	2.62
332.936	2.98
333.402	2.98
333.869	2.66
334.336	2.57
334.802	2.8
335.268	2.65
335.735	2.48
336.201	2.36
336.668	2.62
337.134	2.73
337.6	2.59
338.067	2.93
338.533	2.61
338.999	2.24
339.465	2.27
339.931	2.81
340.398	2.64
340.864	2.27
341.33	2.25
341.796	2.3
342.262	2.98
342.728	2.19
343.194	2.28
343.66	3
344.126	2.19
344.592	1.95
345.057	2.71
345.523	3.03
345.989	2.15
346.455	2.52
346.921	2.49
347.386	3.18
347.852	1.83
348.318	2.3
348.783	2.8
349.249	2.25
349.714	3.11
350.18	3.49
350.645	1.74
351.111	2.83
351.576	2.82
352.042	2.63
352.507	2.18
352.973	2.33
353.438	2.52
353.903	2.88
354.369	2.39
354.834	2.18
355.299	2.58
355.764	2.1
356.229	2.4
356.695	1.78
357.16	2.4
357.625	2.68
358.09	2.26
358.555	2.64
359.02	2.48
359.485	2.42
359.95	2.13
360.415	2.16
360.879	2.76
361.344	1.74
361.809	2.53
362.274	2.56
362.739	1.41
363.203	2.51
363.668	2.89
364.133	2.45
364.597	3.26
365.062	1.45
365.527	1.88
365.991	3.17
366.456	2.62
366.92	2.04
367.385	2.12
367.849	2.14
368.314	1.71
368.778	2.35
369.242	2.24
369.707	1.83
370.171	2.45
370.635	2.02
371.1	2.5
371.564	2.25
372.028	2.2
372.492	2.82
372.956	2.09
373.42	1.32
373.884	2.42
374.348	2.7
374.812	2.41
375.276	2.66
375.74	2.34
376.204	2.7
376.668	2.58
377.132	1.71
377.596	2.48
378.06	2.66
378.524	2.21
378.987	2.19
379.451	2.33
379.915	1.86
380.378	2.2
380.842	2.14
381.306	1.81
381.769	1.5
382.233	2.6
382.696	2.13
383.16	1.92
383.623	2.61
384.087	2.6
384.55	2.21
385.014	2.68
385.477	2.47
385.94	3.01
386.404	2.94
386.867	2.23
387.33	2.78
387.793	2.18
388.256	2.56
388.72	3.02
389.183	2.28
389.646	2.42
390.109	2.17
390.572	2.48
391.035	2.36
391.498	2.8
391.961	2.75
392.424	2.65
392.887	2.71
393.35	2.48
393.812	2.63
394.275	2.08
394.738	2.43
395.201	1.89
395.664	2.26
396.126	1.68
396.589	2.61
397.052	2.78
397.514	2.7
397.977	2.25
398.439	2.94
398.902	2.42
399.364	2.39
399.827	2.87
400.289	3.31
400.752	2.4
401.214	2.57
401.676	2.46
402.139	2.25
402.601	2.83
403.063	2.67
403.525	2.17
403.988	2.38
404.45	2.1
404.912	2.65
405.374	1.88
405.836	2.48
406.298	2.27
406.76	2.77
407.222	2.46
407.684	1.88
408.146	2.66
408.608	2.78
409.07	2.24
409.532	2.47
409.994	2.71
410.456	2.76
410.917	2.39
411.379	2.96
411.841	2.41
412.303	2.66
412.764	2.48
413.226	2.67
413.687	2.56
414.149	2.55
414.611	2.73
415.072	2.18
415.534	2.9
415.995	2.48
416.457	2.03
416.918	2.03
417.379	2.37
417.841	2.65
418.302	2.42
418.763	2.74
419.225	2.66
419.686	2.45
420.147	2.57
420.608	2.42
421.069	2.91
421.53	1.93
421.991	2.68
422.453	2.77
422.914	2.54
423.375	1.75
423.836	2.46
424.297	2.37
424.757	2.43
425.218	2.92
425.679	2.28
426.14	3.21
426.601	2.11
427.062	1.66
427.522	2.79
427.983	2.04
428.444	3.11
428.904	1.77
429.365	2.72
429.826	1.9
430.286	2.64
430.747	4.05
431.207	2.22
431.668	4.13
432.128	4.7
432.589	3.28
433.049	2.69
433.509	2.78
433.97	2.45
434.43	3.6
434.89	3.01
435.351	3.66
435.811	2.07
436.271	2.06
436.731	3.37
437.191	2.71
437.651	2.93
438.112	3.35
438.572	2.72
439.032	2.23
439.492	3.65
439.952	3.31
440.412	3.52
440.871	3.16
441.331	2.8
441.791	2.77
442.251	4.21
442.711	2.99
443.171	3.17
443.63	3.14
444.09	2.13
444.55	3.54
445.009	3.19
445.469	3.24
445.929	3.08
446.388	3.67
446.848	2.92
447.307	2.78
447.767	2.96
448.226	2.4
448.686	3.01
449.145	3.09
449.604	3
450.064	3.36
450.523	2.93
450.982	3.56
451.442	3.6
451.901	3.13
452.36	3.45
452.819	3.16
453.278	3.22
453.737	3.31
454.197	2.55
454.656	2.85
455.115	2.89
455.574	2.33
456.033	3.65
456.492	2.76
456.95	2.71
457.409	3.25
457.868	3.88
458.327	1.86
458.786	1.94
459.245	2.75
459.703	2.47
460.162	3.75
460.621	3.09
461.079	1.57
461.538	3.17
461.997	3.05
462.455	2.55
462.914	2.09
463.372	3.99
463.831	2.99
464.289	2.72
464.748	2.66
465.206	3.35
465.664	3.54
466.123	3.41
466.581	1.64
467.039	3.49
467.497	1.97
467.956	3.38
468.414	2.93
468.872	2.75
469.33	2.91
469.788	3.11
470.246	3.08
470.704	2.75
471.162	2.89
471.62	3.82
472.078	2.77
472.536	2.79
472.994	2.55
473.452	3.32
473.91	2.87
474.368	2.9
474.826	4.33
475.283	2.1
475.741	2.72
476.199	3.46
476.656	2.65
477.114	2.12
477.572	3.03
478.029	2.61
478.487	2.86
478.944	1.89
479.402	1.87
479.859	3.86
480.317	2.16
480.774	3.64
481.232	2.16
481.689	2.25
482.146	3.4
482.604	2.17
483.061	2.96
483.518	2.59
483.975	4.39
484.433	2.42
484.89	3.62
485.347	4.49
485.804	3.4
486.261	1.23
486.718	4.41
487.175	2.68
487.632	3.02
488.089	2.03
488.546	3.56
489.003	3.36
489.46	3.62
489.917	2.2
490.373	3.86
490.83	2.06
491.287	3.1
491.744	4.73
492.2	2.87
492.657	3.05
493.114	2.54
493.57	2.35
494.027	3.02
494.484	3.66
494.94	2.66
495.397	3.83
495.853	3.39
496.31	2.78
496.766	3.08
497.222	2.82
497.679	2.91
498.135	2.82
498.591	2.4
499.048	3.21
499.504	1.59
499.96	2.74
500.416	4.28
500.872	3.52
501.329	3.11
501.785	3.27
502.241	3.24
502.697	4
503.153	2.96
503.609	3.26
504.065	2.92
504.521	4.2
504.977	3.19
505.432	2.64
505.888	3.91
506.344	3.62
506.8	3.55
507.256	4.33
507.711	3.68
508.167	3.15
508.623	2.9
509.078	3.63
509.534	2.48
509.99	2.63
510.445	3.05
510.901	2.91
511.356	3.95
511.812	4.55
512.267	3.63
512.722	2.94
513.178	4.28
513.633	3.23
514.089	3.82
514.544	3.44
514.999	2.98
515.454	3.68
515.91	3.94
516.365	2.93
516.82	4.3
517.275	3.57
517.73	3.91
518.185	3.58
518.64	4
519.095	3.31
519.55	3.57
520.005	4.08
520.46	3.61
520.915	2.33
521.37	3.76
521.825	3.12
522.28	3.88
522.734	3.09
523.189	4.22
523.644	4.19
524.099	3.61
524.553	3.84
525.008	3.51
525.462	4.52
525.917	4.18
526.372	3.55
526.826	4.01
527.281	2.69
527.735	3.56
528.19	2.82
528.644	4.04
529.098	4.36
529.553	4.19
530.007	4.27
530.461	3.34
530.916	3.6
531.37	4.83
531.824	3.93
532.278	3.85
532.732	3.85
533.186	4.37
533.641	3.83
534.095	4.3
534.549	4.12
535.003	3.33
535.457	3.87
535.911	3.82
536.365	3.92
536.818	4.18
537.272	3.25
537.726	3.09
538.18	4.14
538.634	3.49
539.087	4.08
539.541	4.52
539.995	4.29
540.449	3.82
540.902	4.09
541.356	3.92
541.809	2.65
542.263	3.23
542.716	2.55
543.17	3.21
543.623	3.47
544.077	3.96
544.53	4.1
544.984	3.75
545.437	3.4
545.89	4.07
546.344	4.06
546.797	3.94
547.25	3.74
547.703	2.95
548.157	4.36
548.61	3.64
549.063	4.54
549.516	3.17
549.969	4.31
550.422	4.39
550.875	4.68
551.328	3.02
551.781	3.91
552.234	3.67
552.687	3.44
553.14	3.78
553.592	3.63
554.045	3.89
554.498	4.09
554.951	4.41
555.404	4.61
555.856	3.93
556.309	3.81
556.762	3.39
557.214	4.82
557.667	3.5
558.119	4.03
558.572	3.7
559.024	4.16
559.477	4.36
559.929	5.3
560.382	3.64
560.834	4.52
561.286	3.43
561.739	3.98
562.191	4.54
562.643	3.65
563.095	4.41
563.548	3.89
564	4.25
564.452	3.71
564.904	4.09
565.356	4.52
565.808	4.03
566.26	4.13
566.712	4.22
567.164	3.84
567.616	4.33
568.068	6.05
568.52	4.55
568.972	5.47
569.424	4.05
569.876	4.85
570.327	4.43
570.779	4.77
571.231	4.73
571.682	4.54
572.134	3.87
572.586	4.79
573.037	4.33
573.489	4.3
573.941	3.96
574.392	4.44
574.844	4.48
575.295	3.98
575.746	5.36
576.198	4.73
576.649	4.19
577.101	4.9
577.552	4.39
578.003	4.57
578.454	4.54
578.906	4.24
579.357	4.41
579.808	4.57
580.259	4.85
580.71	4.4
581.161	4.74
581.612	4.44
582.064	4.58
582.515	4.3
582.965	4.88
583.416	4.2
583.867	4.32
584.318	4.71
584.769	5.37
585.22	4.78
585.671	4.53
586.122	4.09
586.572	4.32
587.023	4.95
587.474	4.44
587.924	3.91
588.375	4.22
588.826	4.81
589.276	4.41
589.727	4.89
590.177	4.67
590.628	4.53
591.078	4.47
591.529	5.03
591.979	5.01
592.429	4.95
592.88	4.52
593.33	4.55
593.78	5.24
594.231	4.81
594.681	4.37
595.131	5.16
595.581	5.07
596.031	4.52
596.481	4.84
596.932	4.36
597.382	5.03
597.832	4.5
598.282	4.83
598.732	5
599.182	4.68
599.632	4.35
600.081	4.39
600.531	4.6
600.981	4.55
601.431	4.63
601.881	4.91
602.33	5.05
602.78	4.71
603.23	5.78
603.679	5.26
604.129	5.04
604.579	5.22
605.028	4.53
605.478	5.11
605.927	4.77
606.377	5.35
606.826	5.01
607.276	4.47
607.725	5.23
608.175	5.06
608.624	4.65
609.073	4.57
609.522	4.96
609.972	5.53
610.421	4.75
610.87	4.69
611.319	4.99
611.768	4.98
612.218	5.21
612.667	5.49
613.116	5.44
613.565	4.88
614.014	4.76
614.463	5.33
614.912	5.03
615.361	4.9
615.81	5.09
616.258	5.34
616.707	5.23
617.156	5.37
617.605	5.12
618.054	5.24
618.502	5.53
618.951	5.19
619.4	5.33
619.848	5.35
620.297	4.97
620.745	5.62
621.194	4.7
621.642	5.3
622.091	5.08
622.539	5.06
622.988	5.06
623.436	5.4
623.885	4.94
624.333	5.06
624.781	5.69
625.23	5.05
625.678	5.14
626.126	5.22
626.574	5.29
627.022	5.22
627.471	5.1
627.919	5.22
628.367	5.18
628.815	4.99
629.263	5.66
629.711	5.56
630.159	5.36
630.607	5.64
631.055	5.41
631.503	5.64
631.95	5.08
632.398	5.39
632.846	5.07
633.294	5.37
633.742	5.46
634.189	5.7
634.637	5.67
635.085	5.58
635.532	5.43
635.98	5.44
636.427	5.56
636.875	5.61
637.323	5.52
637.77	5.67
638.217	5.32
638.665	5.57
639.112	5.61
639.56	5.44
640.007	5.4
640.454	5.49
640.902	5.53
641.349	6
641.796	5.64
642.243	5.19
642.69	5.26
643.138	5.72
643.585	5.36
644.032	5.8
644.479	5.59
644.926	5.48
645.373	5.56
645.82	5.77
646.267	5.47
646.714	5.66
647.161	5.17
647.607	6.1
648.054	5.57
648.501	5.59
648.948	5.5
649.395	5.88
649.841	5.91
650.288	5.92
650.735	6
651.181	5.86
651.628	5.94
652.075	5.66
652.521	5.94
652.968	5.59
653.414	5.96
653.861	5.52
654.307	5.91
654.753	5.99
655.2	6.14
655.646	5.64
656.092	6.1
656.539	5.89
656.985	5.79
657.431	5.64
657.877	5.96
658.324	6.18
658.77	5.69
659.216	6.27
659.662	5.86
660.108	6.21
660.554	6.06
661	5.74
661.446	6.03
661.892	5.69
662.338	5.55
662.784	6.42
663.23	6.37
663.675	5.56
664.121	5.98
664.567	6.02
665.013	5.75
665.458	5.75
665.904	5.87
666.35	5.8
666.795	6.29
667.241	6.26
667.687	5.83
668.132	6.26
668.578	6.18
669.023	6.19
669.469	6.1
669.914	5.66
670.359	6.13
670.805	5.84
671.25	5.97
671.695	5.94
672.141	5.99
672.586	6.45
673.031	6.59
673.476	6.02
673.922	6.43
674.367	5.68
674.812	6.02
675.257	5.91
675.702	6.21
676.147	5.92
676.592	6
677.037	6.09
677.482	5.73
677.927	6.38
678.372	6.28
678.817	6.22
679.261	6.29
679.706	6.57
680.151	6.53
680.596	6.31
681.04	6.28
681.485	6.84
681.93	6.39
682.374	6.39
682.819	6.17
683.264	6.13
683.708	6.48
684.153	6.49
684.597	6.43
685.042	6.25
685.486	6.35
685.93	6.69
686.375	6.26
686.819	6.52
687.263	6.28
687.708	6.17
688.152	6.64
688.596	6.41
689.04	6.6
689.485	6.49
689.929	6.61
690.373	6.2
690.817	6.57
691.261	6.46
691.705	6.86
692.149	6.34
692.593	6.28
693.037	6.54
693.481	6.4
693.925	6.65
694.369	6.64
694.812	6.2
695.256	6.1
695.7	6.69
696.144	6.82
696.587	6.57
697.031	6.83
697.475	6.69
697.918	6.46
698.362	6.86
698.806	6.27
699.249	6.81
699.693	6.6
700.136	6.82
700.58	6.83
701.023	6.75
701.466	6.7
701.91	6.71
702.353	6.55
702.796	6.96
703.24	6.85
703.683	6.84
704.126	7.15
704.569	6.78
705.013	6.89
705.456	6.78
705.899	6.85
706.342	6.98
706.785	6.81
707.228	6.89
707.671	6.53
708.114	6.58
708.557	6.7
709	6.75
709.443	6.67
709.886	6.65
710.328	7.12
710.771	7.1
711.214	7.29
711.657	6.8
712.099	6.81
712.542	6.8
712.985	6.94
713.427	7.13
713.87	6.87
714.313	6.88
714.755	6.77
715.198	7.13
715.64	7.12
716.083	7.06
716.525	6.92
716.967	7.13
717.41	6.98
717.852	6.93
718.295	7.17
718.737	7.1
719.179	6.94
719.621	7.02
720.063	7.06
720.506	6.97
720.948	6.96
721.39	7.25
721.832	6.93
722.274	7.39
722.716	7.31
723.158	7.02
723.6	7.18
724.042	7.09
724.484	7.43
724.926	7.25
725.368	7.36
725.81	7.3
726.251	7.41
726.693	7.1
727.135	7.29
727.577	7.29
728.018	6.88
728.46	7.02
728.902	7.3
729.343	7.5
729.785	7.41
730.226	7.34
730.668	7.3
731.109	6.76
731.551	7.33
731.992	7.7
732.434	7.24
732.875	7.28
733.316	6.92
733.758	7.24
734.199	7.38
734.64	7.27
735.081	7.31
735.523	6.95
735.964	7.39
736.405	7.46
736.846	7.29
737.287	7.36
737.728	7.27
738.169	7.37
738.61	7.06
739.051	7.69
739.492	7.53
739.933	7.65
740.374	7.6
740.815	7.56
741.256	7.07
741.696	7.07
742.137	7.44
742.578	7.59
743.019	7.56
743.459	7.14
743.9	7.62
744.341	7.54
744.781	7.28
745.222	7.41
745.662	7.58
746.103	7.44
746.543	6.8
746.984	7.73
747.424	7.49
747.865	7.87
748.305	7.36
748.745	7.42
749.186	8.03
749.626	7.69
750.066	7.59
750.506	7.59
750.947	7.41
751.387	7.36
751.827	7.88
752.267	7.73
752.707	7.55
753.147	7.79
753.587	8.06
754.027	7.38
754.467	7.58
754.907	7.72
755.347	7.5
755.787	7.42
756.227	8.1
756.667	7.99
757.107	7.94
757.546	7.98
757.986	7.7
758.426	8.02
758.865	7.74
759.305	7.9
759.745	7.97
760.184	7.76
760.624	7.63
761.063	8.05
761.503	7.99
761.943	7.79
762.382	7.89
762.821	8.06
763.261	8.23
763.7	7.55
764.14	7.29
764.579	8.17
765.018	8.07
765.457	7.5
765.897	7.88
766.336	8.02
766.775	8.05
767.214	7.96
767.653	7.76
768.092	7.88
768.531	8.1
768.97	8.12
769.409	8.02
769.848	8.2
770.287	8.13
770.726	8.13
771.165	8.3
771.604	8.03
772.043	8.13
772.482	8.25
772.92	8.08
773.359	7.93
773.798	8.27
774.237	8.27
774.675	8.27
775.114	7.89
775.553	8.03
775.991	8.4
776.43	8.32
776.868	7.99
777.307	8.22
777.745	8.29
778.184	8.55
778.622	8.14
779.06	8.48
779.499	8.4
779.937	8.03
780.375	8.23
780.814	8.21
781.252	8.48
781.69	8.48
782.128	8.26
782.566	8.14
783.004	8.63
783.443	8.35
783.881	8.4
784.319	8.56
784.757	8.44
785.195	8.67
785.633	8.18
786.071	8.76
786.508	8.78
786.946	8.37
787.384	8.67
787.822	8.3
788.26	8.37
788.697	8.68
789.135	8.25
789.573	8.53
790.011	8.5
790.448	8.61
790.886	8.41
791.323	8.7
791.761	8.47
792.198	8.57
792.636	8.28
793.073	8.79
793.511	8.72
793.948	8.84
794.386	8.93
794.823	8.73
795.26	8.72
795.698	8.49
796.135	8.44
796.572	8.9
797.009	8.63
797.446	8.78
797.884	8.92
798.321	8.78
798.758	8.74
799.195	9.03
799.632	8.8
800.069	8.85
800.506	8.7
800.943	8.55
801.38	8.72
801.817	8.8
802.254	8.88
802.69	8.82
803.127	8.72
803.564	8.98
804.001	8.92
804.438	8.81
804.874	8.69
805.311	8.85
805.748	8.84
806.184	8.75
806.621	8.95
807.057	8.85
807.494	8.97
807.93	8.86
808.367	8.87
808.803	8.99
809.24	8.89
809.676	9.23
810.112	8.97
810.549	8.99
810.985	8.77
811.421	9.06
811.857	8.83
812.294	9.17
812.73	9.08
813.166	9.19
813.602	9.09
814.038	8.96
814.474	8.83
814.91	9.29
815.346	8.98
815.782	8.88
816.218	9.04
816.654	9.37
817.09	9.16
817.526	9.17
817.962	9.23
818.398	9.02
818.833	9.44
819.269	9.26
819.705	9.11
820.141	9.07
820.576	9.39
821.012	9.28
821.447	9.22
821.883	9.25
822.319	9.35
822.754	9.14
823.19	9.29
823.625	9.08
824.061	9.28
824.496	9.53
824.931	9.17
825.367	9.52
825.802	9.26
826.237	9.33
826.673	9.56
827.108	9.3
827.543	9.72
827.978	9.18
828.413	9.16
828.849	9.39
829.284	9.48
829.719	9.62
830.154	9.57
830.589	9.74
831.024	9.57
831.459	9.62
831.894	9.49
832.329	9.64
832.763	9.45
833.198	9.46
833.633	9.47
834.068	9.54
834.503	9.3
834.937	9.51
835.372	9.75
835.807	9.51
836.241	9.65
836.676	9.74
837.111	9.33
837.545	9.6
837.98	9.63
838.414	9.63
838.849	9.55
839.283	9.73
839.717	9.79
840.152	9.73
840.586	9.95
841.021	9.66
841.455	9.62
841.889	9.89
842.323	9.84
842.758	9.83
843.192	9.64
843.626	9.73
844.06	9.9
844.494	9.87
844.928	9.99
845.362	9.97
845.796	9.79
