Data from JCR0004_Black2_Reflection_00003.txt Node
Date: Wed Jul 22 13:44:00 ACST 2020
User: Stacey Dix
Spectrometer: MAYP113282
Scans to average: 1
Trigger mode: 0
Integration Time (sec): 1.000000E-1
Electric dark correction enabled: true
Boxcar width: 0
XAxis mode: Wavelengths
Number of Pixels in Spectrum: 2068
>>>>>Begin Spectral Data<<<<<
198.791	-122.22
199.266	-33.33
199.74	119.05
200.215	23.81
200.69	17.95
201.164	57.42
201.639	-7.63
202.114	5.91
202.588	11.75
203.063	29.19
203.537	4.71
204.012	18.83
204.486	17.77
204.961	9.02
205.435	1.1
205.909	20.24
206.384	12.71
206.858	3.09
207.332	3.99
207.807	39.79
208.281	-2.56
208.755	16.01
209.229	11.36
209.703	10.89
210.177	7.28
210.651	18.87
211.126	1.03
211.6	17.52
212.074	27.58
212.548	27.67
213.021	26.97
213.495	2.37
213.969	18.89
214.443	24.54
214.917	18.54
215.391	29.46
215.864	7.05
216.338	17.04
216.812	17.84
217.286	19.44
217.759	22.81
218.233	25.24
218.706	11.91
219.18	27.12
219.654	20.12
220.127	14.27
220.6	17.97
221.074	23.04
221.547	21.97
222.021	21.4
222.494	21.22
222.967	21.64
223.441	27.26
223.914	25.76
224.387	24.62
224.86	25.7
225.334	21.21
225.807	21.43
226.28	27.9
226.753	21.58
227.226	20.93
227.699	26.58
228.172	19.81
228.645	23.88
229.118	23.69
229.591	24.73
230.064	21.63
230.537	26.83
231.01	23.32
231.482	24.32
231.955	25.51
232.428	24.74
232.901	24.77
233.373	23.74
233.846	24.75
234.319	25.68
234.791	24.55
235.264	24.3
235.736	24.25
236.209	26.6
236.681	24.26
237.154	25.1
237.626	24.34
238.099	24.35
238.571	23.85
239.044	24.34
239.516	22.93
239.988	23.06
240.46	23.97
240.933	23.47
241.405	24.3
241.877	24.26
242.349	23.04
242.821	22.66
243.293	21.68
243.765	22.88
244.237	22.1
244.71	24.49
245.181	21.43
245.653	22.38
246.125	21.4
246.597	22.86
247.069	22.09
247.541	21.06
248.013	20.27
248.485	21.01
248.956	21.55
249.428	21.01
249.9	21.07
250.371	21.29
250.843	20.32
251.315	21.49
251.786	19.93
252.258	20.12
252.729	21.01
253.201	20.8
253.672	21
254.144	19.76
254.615	21.49
255.086	21.18
255.558	20.94
256.029	20.55
256.5	20.77
256.972	21.11
257.443	21.45
257.914	20.52
258.385	21.32
258.856	20.29
259.327	20.96
259.799	20.1
260.27	19.92
260.741	20.71
261.212	20.71
261.683	20.74
262.154	19.22
262.624	21.2
263.095	19.55
263.566	20
264.037	20.21
264.508	20.26
264.979	20.88
265.449	20.8
265.92	19.03
266.391	20.54
266.861	20.84
267.332	19.21
267.803	20.02
268.273	20.4
268.744	20.62
269.214	20.53
269.685	20.82
270.155	20.21
270.626	20.78
271.096	20.85
271.566	21.11
272.037	21
272.507	21.02
272.977	21.03
273.448	19.19
273.918	20.37
274.388	20.77
274.858	19
275.328	19.65
275.798	21.24
276.268	19.06
276.738	20.03
277.208	20.45
277.678	20.24
278.148	19.89
278.618	20.57
279.088	19.71
279.558	19.07
280.028	19.23
280.498	19.6
280.968	19.63
281.437	20.87
281.907	18.61
282.377	19.88
282.847	19.54
283.316	20.44
283.786	19.56
284.255	19.72
284.725	18.67
285.194	19.79
285.664	20.54
286.133	20.96
286.603	19.3
287.072	20.83
287.542	19.69
288.011	21.28
288.48	19.68
288.95	19.78
289.419	20.23
289.888	19.55
290.357	20
290.827	18.67
291.296	20.45
291.765	20
292.234	19.97
292.703	21.47
293.172	20.09
293.641	19.63
294.11	20.28
294.579	20.37
295.048	20.11
295.517	20.44
295.986	20.03
296.455	19.01
296.923	19.69
297.392	20.52
297.861	18.68
298.33	20.48
298.798	19.62
299.267	19.75
299.736	19.32
300.204	19.79
300.673	18.39
301.141	19.72
301.61	19.04
302.079	19.39
302.547	19.18
303.015	18.62
303.484	19.09
303.952	18.89
304.421	19.26
304.889	18.07
305.357	18.14
305.825	19.14
306.294	19.43
306.762	20.69
307.23	18.3
307.698	18.33
308.166	19.53
308.634	18.66
309.103	18.66
309.571	18.73
310.039	17.48
310.507	18.89
310.975	18.46
311.442	18.62
311.91	18.18
312.378	18.87
312.846	18.8
313.314	18
313.782	16.74
314.249	17.88
314.717	18.56
315.185	18.95
315.652	18.33
316.12	18.47
316.588	18.1
317.055	17.56
317.523	17.51
317.99	17.87
318.458	18.15
318.925	18.02
319.393	17.89
319.86	18.33
320.328	18.28
320.795	17.41
321.262	17.58
321.73	18.32
322.197	17.56
322.664	16.84
323.131	17.11
323.598	17.46
324.066	16.29
324.533	16.91
325	16.23
325.467	17.13
325.934	18.17
326.401	17.12
326.868	17.44
327.335	16.78
327.802	15.76
328.269	17.59
328.735	16.65
329.202	17.33
329.669	15.6
330.136	16.28
330.603	16.3
331.069	16.44
331.536	15.75
332.003	16.94
332.469	16.88
332.936	15.94
333.402	16.64
333.869	17.3
334.336	17.07
334.802	16.54
335.268	16.45
335.735	15.93
336.201	17.13
336.668	17.01
337.134	16.8
337.6	15.8
338.067	16.51
338.533	16.37
338.999	15.74
339.465	16.65
339.931	15.6
340.398	15.94
340.864	15.61
341.33	15.21
341.796	15.82
342.262	16.28
342.728	16.27
343.194	15.52
343.66	16.73
344.126	15.45
344.592	15.18
345.057	15.93
345.523	16.11
345.989	15.59
346.455	15.09
346.921	16.8
347.386	16.13
347.852	16.58
348.318	16.16
348.783	16
349.249	15.25
349.714	15.27
350.18	15.94
350.645	15.97
351.111	14.93
351.576	16.12
352.042	16.38
352.507	15.41
352.973	15.77
353.438	16.08
353.903	15.3
354.369	15.47
354.834	15.25
355.299	15.64
355.764	15.71
356.229	15.98
356.695	14.78
357.16	16.23
357.625	15.29
358.09	14.73
358.555	15.18
359.02	15.31
359.485	14.84
359.95	15.07
360.415	15.02
360.879	15.78
361.344	15.16
361.809	15.92
362.274	14.55
362.739	14.75
363.203	15.14
363.668	14.61
364.133	13.97
364.597	15.22
365.062	15.15
365.527	14.86
365.991	14.39
366.456	15.21
366.92	15.37
367.385	14.11
367.849	14.26
368.314	14.53
368.778	15.34
369.242	14.62
369.707	14.4
370.171	13.97
370.635	16.7
371.1	14.6
371.564	15.21
372.028	15.1
372.492	14.67
372.956	14
373.42	16.24
373.884	14.06
374.348	15.23
374.812	13.57
375.276	15.65
375.74	14.51
376.204	14.07
376.668	13.96
377.132	15.81
377.596	15.23
378.06	13.95
378.524	14.76
378.987	14.05
379.451	14.1
379.915	14.86
380.378	15.46
380.842	14.13
381.306	14.63
381.769	15.63
382.233	14.33
382.696	14.74
383.16	15.56
383.623	13.65
384.087	15.11
384.55	14.28
385.014	15.55
385.477	14.88
385.94	14.63
386.404	14.95
386.867	14.61
387.33	14.07
387.793	14.88
388.256	14.04
388.72	13.79
389.183	14.58
389.646	12.94
390.109	13.38
390.572	13.31
391.035	14.94
391.498	14.24
391.961	14.55
392.424	15.22
392.887	14.5
393.35	14.37
393.812	14.74
394.275	14.73
394.738	14.8
395.201	15.03
395.664	14.37
396.126	13.99
396.589	14.75
397.052	14.93
397.514	15.09
397.977	15.05
398.439	14.97
398.902	14.59
399.364	15.09
399.827	14.21
400.289	14.72
400.752	14.49
401.214	14.73
401.676	14.17
402.139	14.84
402.601	13.04
403.063	14.03
403.525	13.94
403.988	14.2
404.45	15.41
404.912	13.9
405.374	13.9
405.836	13.21
406.298	13.66
406.76	14.89
407.222	14.26
407.684	14.32
408.146	14.69
408.608	13.72
409.07	13.45
409.532	13.93
409.994	13.17
410.456	13.07
410.917	13.88
411.379	13.36
411.841	14.07
412.303	14.56
412.764	13.85
413.226	13.82
413.687	13.34
414.149	14.38
414.611	14.6
415.072	14.14
415.534	13.76
415.995	14.23
416.457	14.38
416.918	14.07
417.379	14.33
417.841	14.83
418.302	13.67
418.763	13.85
419.225	15.58
419.686	14.43
420.147	14.9
420.608	14.55
421.069	13.92
421.53	13.98
421.991	14.83
422.453	14.09
422.914	15.11
423.375	14.5
423.836	15.06
424.297	14.71
424.757	15.38
425.218	15.14
425.679	13.1
426.14	14.96
426.601	14.49
427.062	14.09
427.522	12.68
427.983	14.42
428.444	14.21
428.904	13.51
429.365	13.05
429.826	12.3
430.286	14.93
430.747	12.63
431.207	13.27
431.668	11.36
432.128	13.15
432.589	11.58
433.049	12.24
433.509	14
433.97	10.75
434.43	12.77
434.89	14.23
435.351	12.07
435.811	13.43
436.271	12.94
436.731	12.16
437.191	13.68
437.651	13.28
438.112	12.42
438.572	12.35
439.032	13.1
439.492	12.54
439.952	12.48
440.412	12.67
440.871	13.93
441.331	13.29
441.791	12.45
442.251	13.36
442.711	11.49
443.171	12.45
443.63	13.13
444.09	12.7
444.55	12.56
445.009	12.09
445.469	12.44
445.929	11.85
446.388	12.78
446.848	10.99
447.307	13.42
447.767	12.12
448.226	12.56
448.686	12.64
449.145	13.61
449.604	12.99
450.064	11.17
450.523	13.1
450.982	12.09
451.442	11.95
451.901	11.37
452.36	13.07
452.819	11.11
453.278	11.67
453.737	12.25
454.197	11.17
454.656	12.47
455.115	10.94
455.574	12.31
456.033	12.2
456.492	12.67
456.95	10.67
457.409	10.19
457.868	13.12
458.327	10.52
458.786	10.52
459.245	13.15
459.703	11.6
460.162	12.77
460.621	12.37
461.079	13.64
461.538	12.57
461.997	11.5
462.455	11.05
462.914	12.22
463.372	12.89
463.831	12.88
464.289	11.63
464.748	11.84
465.206	11.82
465.664	12.65
466.123	12.3
466.581	11.68
467.039	11.08
467.497	12.61
467.956	13.04
468.414	12.91
468.872	12.02
469.33	12.73
469.788	12.92
470.246	12.58
470.704	12.39
471.162	11.92
471.62	13.14
472.078	13.46
472.536	10.9
472.994	12.54
473.452	11.44
473.91	12.68
474.368	12.16
474.826	12.2
475.283	13.05
475.741	10.31
476.199	12.25
476.656	13.2
477.114	11.63
477.572	11.88
478.029	11.74
478.487	12.54
478.944	12.62
479.402	11.29
479.859	12.54
480.317	11.55
480.774	14.6
481.232	11.43
481.689	12.15
482.146	13.96
482.604	10.94
483.061	11.9
483.518	14.32
483.975	12.2
484.433	12.16
484.89	12.64
485.347	12.36
485.804	12.8
486.261	14.01
486.718	11.55
487.175	12.47
487.632	11.73
488.089	11.44
488.546	12.53
489.003	12.8
489.46	13.06
489.917	12.12
490.373	10.58
490.83	12.84
491.287	13.73
491.744	11.27
492.2	12.18
492.657	11.5
493.114	10.68
493.57	12.3
494.027	12.79
494.484	12.75
494.94	11.68
495.397	12.6
495.853	11.06
496.31	11.43
496.766	12.4
497.222	14.04
497.679	12.99
498.135	11.78
498.591	11.42
499.048	11.9
499.504	12.52
499.96	11.26
500.416	11.66
500.872	12.15
501.329	11.79
501.785	11.45
502.241	12.18
502.697	13.1
503.153	12.96
503.609	11.16
504.065	12.74
504.521	11.67
504.977	12.95
505.432	10.58
505.888	12.04
506.344	13.18
506.8	12.53
507.256	12.95
507.711	11.69
508.167	11.45
508.623	12.1
509.078	12.16
509.534	11.84
509.99	12.49
510.445	11.82
510.901	12.6
511.356	12.51
511.812	13.51
512.267	11.5
512.722	14.13
513.178	12.96
513.633	12.66
514.089	12.19
514.544	13.39
514.999	11.57
515.454	11.82
515.91	11.37
516.365	12.06
516.82	12.28
517.275	13.7
517.73	12.7
518.185	13.97
518.64	13.09
519.095	12.35
519.55	13.34
520.005	12.99
520.46	13.35
520.915	13.01
521.37	12.98
521.825	13.18
522.28	12.55
522.734	12.98
523.189	13.81
523.644	11.96
524.099	12.04
524.553	13.27
525.008	11.56
525.462	12.87
525.917	12.23
526.372	13.17
526.826	11.79
527.281	12.7
527.735	11.05
528.19	13.13
528.644	12.92
529.098	12.45
529.553	12.51
530.007	11.91
530.461	12.67
530.916	13.89
531.37	13.05
531.824	12.07
532.278	11.23
532.732	13.78
533.186	13.59
533.641	13.22
534.095	12.32
534.549	12.9
535.003	12.61
535.457	12.33
535.911	13.62
536.365	13.6
536.818	13.21
537.272	12.25
537.726	11.82
538.18	11.7
538.634	13.09
539.087	11.13
539.541	12.87
539.995	11.4
540.449	12.99
540.902	12.58
541.356	15.14
541.809	12.31
542.263	12.84
542.716	12.61
543.17	12.95
543.623	11.47
544.077	12.87
544.53	12.54
544.984	13.13
545.437	11.68
545.89	11.68
546.344	13.4
546.797	12.73
547.25	13.41
547.703	14.38
548.157	12.94
548.61	12.16
549.063	12.62
549.516	13.58
549.969	12.63
550.422	12.67
550.875	12.78
551.328	12.04
551.781	13.15
552.234	12.73
552.687	12.7
553.14	12.23
553.592	13.45
554.045	13.33
554.498	11.97
554.951	12.29
555.404	12.88
555.856	13.9
556.309	13.05
556.762	12.71
557.214	13.96
557.667	12.52
558.119	13.62
558.572	12.35
559.024	13.41
559.477	12.61
559.929	12.3
560.382	12.31
560.834	12.95
561.286	12.93
561.739	13.21
562.191	12.39
562.643	13.57
563.095	14.89
563.548	12.74
564	13.23
564.452	12.3
564.904	13.38
565.356	13.32
565.808	13.08
566.26	12.76
566.712	12.92
567.164	13.32
567.616	13.38
568.068	13.52
568.52	12.4
568.972	12.54
569.424	12.09
569.876	13.57
570.327	12.41
570.779	13.46
571.231	13.34
571.682	12.97
572.134	13.52
572.586	12.9
573.037	13.63
573.489	12.96
573.941	13.1
574.392	13.03
574.844	13.21
575.295	14.2
575.746	13.46
576.198	13.23
576.649	13.03
577.101	12.78
577.552	13.09
578.003	12.49
578.454	13.74
578.906	12.66
579.357	12.56
579.808	13.12
580.259	13.17
580.71	13.17
581.161	13.14
581.612	14.01
582.064	12.32
582.515	13.82
582.965	13.44
583.416	13.37
583.867	13.98
584.318	12.92
584.769	13.31
585.22	13.4
585.671	12.81
586.122	13.71
586.572	12.84
587.023	12.87
587.474	13.56
587.924	13.88
588.375	12.77
588.826	13.15
589.276	13.5
589.727	12.31
590.177	12.82
590.628	12.12
591.078	12.63
591.529	13.15
591.979	13.38
592.429	12.79
592.88	13.45
593.33	13.41
593.78	12.79
594.231	12.69
594.681	13.53
595.131	13.67
595.581	13.5
596.031	12.89
596.481	13.4
596.932	13.55
597.382	14.04
597.832	13.89
598.282	13.52
598.732	13.21
599.182	13.61
599.632	13.08
600.081	12.34
600.531	14.47
600.981	12.32
601.431	13.66
601.881	13.86
602.33	12.64
602.78	12.73
603.23	13.65
603.679	12.62
604.129	13.45
604.579	13.07
605.028	13.15
605.478	13.22
605.927	13.41
606.377	12.98
606.826	13.73
607.276	13.34
607.725	13.44
608.175	13.52
608.624	13.33
609.073	13.21
609.522	12.99
609.972	13.3
610.421	13.19
610.87	13.28
611.319	12.99
611.768	13.7
612.218	13.17
612.667	13.29
613.116	13.66
613.565	13.08
614.014	12.84
614.463	12.78
614.912	13.38
615.361	13.57
615.81	13.78
616.258	13.42
616.707	12.88
617.156	12.92
617.605	13.2
618.054	13.6
618.502	13.97
618.951	13.73
619.4	13.59
619.848	14.34
620.297	13.36
620.745	13.77
621.194	13.22
621.642	13.96
622.091	13.96
622.539	15.14
622.988	12.68
623.436	13.89
623.885	13.42
624.333	13.27
624.781	13.51
625.23	13.91
625.678	13.72
626.126	13.55
626.574	13.53
627.022	13.38
627.471	13.86
627.919	14.31
628.367	13.61
628.815	13.14
629.263	14.14
629.711	13.31
630.159	14.08
630.607	14.9
631.055	13.91
631.503	13.85
631.95	13.98
632.398	13.62
632.846	12.73
633.294	15.14
633.742	13.41
634.189	14.06
634.637	13.32
635.085	13.74
635.532	13.7
635.98	14.34
636.427	14.13
636.875	14.17
637.323	13.85
637.77	13.89
638.217	14.37
638.665	14.3
639.112	13.4
639.56	14.32
640.007	13.64
640.454	14.39
640.902	13.89
641.349	13.8
641.796	13.73
642.243	13.71
642.69	13.69
643.138	14.94
643.585	14.04
644.032	14.88
644.479	14.21
644.926	14.38
645.373	14.15
645.82	13.47
646.267	14.28
646.714	13.6
647.161	14.29
647.607	14.32
648.054	14.25
648.501	13.72
648.948	14
649.395	14.25
649.841	13.99
650.288	14.26
650.735	14.05
651.181	14.44
651.628	13.68
652.075	13.25
652.521	14.4
652.968	13.61
653.414	13.78
653.861	14.93
654.307	13.73
654.753	14.28
655.2	14.22
655.646	14.31
656.092	13.65
656.539	14.1
656.985	14.34
657.431	14.27
657.877	14.47
658.324	14.3
658.77	14
659.216	14.3
659.662	14.56
660.108	14.21
660.554	14.79
661	14.14
661.446	14.37
661.892	14.81
662.338	14.44
662.784	14.08
663.23	14.61
663.675	13.93
664.121	15.06
664.567	13.94
665.013	14.34
665.458	14.59
665.904	14.93
666.35	14.59
666.795	14.25
667.241	14.18
667.687	14.26
668.132	14.05
668.578	14.05
669.023	14.69
669.469	13.89
669.914	14.38
670.359	14.1
670.805	14.56
671.25	15.07
671.695	14.16
672.141	14.95
672.586	14.29
673.031	14.47
673.476	14.52
673.922	14.91
674.367	14.22
674.812	14.02
675.257	14.61
675.702	14.74
676.147	14.43
676.592	14.45
677.037	14.12
677.482	14.13
677.927	14.74
678.372	14.28
678.817	14.75
679.261	14.47
679.706	14.64
680.151	14.22
680.596	14.64
681.04	14.34
681.485	14.88
681.93	14.81
682.374	14.37
682.819	14.81
683.264	14.41
683.708	14.49
684.153	14.23
684.597	14.3
685.042	14.86
685.486	14.33
685.93	14.75
686.375	14.21
686.819	14.5
687.263	14.96
687.708	14.41
688.152	14.7
688.596	14.85
689.04	15.28
689.485	14.92
689.929	15.23
690.373	15.22
690.817	15.19
691.261	14.63
691.705	14.55
692.149	14.58
692.593	14.89
693.037	14.32
693.481	15.27
693.925	14.88
694.369	14.82
694.812	15.45
695.256	14.91
695.7	14.23
696.144	14.67
696.587	15.15
697.031	14.72
697.475	14.73
697.918	14.8
698.362	15.08
698.806	14.65
699.249	14.96
699.693	14.9
700.136	14.98
700.58	14.48
701.023	14.48
701.466	15.05
701.91	14.74
702.353	15.25
702.796	14.9
703.24	14.74
703.683	15.56
704.126	14.6
704.569	14.87
705.013	14.98
705.456	14.77
705.899	14.53
706.342	15.29
706.785	14.83
707.228	14.69
707.671	15.03
708.114	14.52
708.557	15.14
709	14.97
709.443	15.26
709.886	14.91
710.328	14.71
710.771	14.72
711.214	15.66
711.657	15.27
712.099	14.98
712.542	15.21
712.985	15.57
713.427	14.97
713.87	15.24
714.313	14.88
714.755	15.03
715.198	14.75
715.64	15.24
716.083	15.51
716.525	15.46
716.967	15.8
717.41	15.43
717.852	15.16
718.295	15.13
718.737	15.47
719.179	15.77
719.621	15.38
720.063	15.37
720.506	14.8
720.948	15.25
721.39	15.43
721.832	15.43
722.274	15.57
722.716	15.37
723.158	15.09
723.6	15.23
724.042	14.96
724.484	15.74
724.926	15.63
725.368	15.12
725.81	15.25
726.251	15.55
726.693	15.74
727.135	15.27
727.577	15.39
728.018	15.57
728.46	15.18
728.902	15.18
729.343	15.92
729.785	15.27
730.226	14.58
730.668	14.47
731.109	15.85
731.551	16.1
731.992	15.29
732.434	15.71
732.875	15.27
733.316	15.52
733.758	15.49
734.199	16.01
734.64	15.16
735.081	16
735.523	15.66
735.964	16.21
736.405	15.07
736.846	16.29
737.287	16.03
737.728	15.28
738.169	15.47
738.61	15.34
739.051	15.92
739.492	15.76
739.933	15.4
740.374	15.76
740.815	15.68
741.256	15.9
741.696	15.43
742.137	15.36
742.578	15.48
743.019	15.62
743.459	16
743.9	15.79
744.341	15.34
744.781	16.53
745.222	16.34
745.662	15.66
746.103	15.93
746.543	15.16
746.984	15.98
747.424	15.74
747.865	15.81
748.305	15.56
748.745	16.19
749.186	15.94
749.626	16.5
750.066	16.12
750.506	15.43
750.947	16.13
751.387	15.75
751.827	15.98
752.267	16.11
752.707	15.99
753.147	15.7
753.587	16.04
754.027	16.22
754.467	16.06
754.907	15.66
755.347	16.55
755.787	15.71
756.227	16.08
756.667	15.86
757.107	16.09
757.546	15.88
757.986	16.12
758.426	16.35
758.865	16.22
759.305	16.08
759.745	16.18
760.184	16.03
760.624	16.13
761.063	16.78
761.503	16.1
761.943	16.43
762.382	15.75
762.821	15.93
763.261	16.75
763.7	16.3
764.14	16.31
764.579	15.91
765.018	16.12
765.457	16.03
765.897	15.92
766.336	16.46
766.775	16.55
767.214	15.55
767.653	17.02
768.092	16.1
768.531	16.1
768.97	16.15
769.409	16.48
769.848	16.56
770.287	16.73
770.726	15.64
771.165	16.63
771.604	16.54
772.043	16.21
772.482	16.22
772.92	16.73
773.359	16.71
773.798	16.52
774.237	16.94
774.675	16.62
775.114	16.63
775.553	16.34
775.991	16.55
776.43	16.75
776.868	16.62
777.307	16.36
777.745	16.81
778.184	16.45
778.622	16.76
779.06	16.05
779.499	16.32
779.937	16.89
780.375	16.76
780.814	16.36
781.252	16.68
781.69	16.37
782.128	16.82
782.566	16.94
783.004	16.66
783.443	16.95
783.881	16.32
784.319	16.27
784.757	16.9
785.195	16.89
785.633	16.72
786.071	16.78
786.508	16.28
786.946	16.72
787.384	16.43
787.822	16.66
788.26	16.99
788.697	17.53
789.135	16.79
789.573	16.9
790.011	17.07
790.448	17.01
790.886	17.06
791.323	17.49
791.761	16.8
792.198	17.09
792.636	17.43
793.073	17.14
793.511	16.86
793.948	17.35
794.386	17.15
794.823	16.79
795.26	17.25
795.698	17.14
796.135	17.16
796.572	17.14
797.009	17.18
797.446	17.48
797.884	17.49
798.321	17.51
798.758	17.35
799.195	16.97
799.632	17.18
800.069	16.81
800.506	17.32
800.943	17.22
801.38	17.5
801.817	17.46
802.254	17.67
802.69	16.95
803.127	17.35
803.564	16.77
804.001	17.77
804.438	17.25
804.874	17.03
805.311	17.21
805.748	17.34
