Data from JCR0006_YellowVentral_Reflection_00001.txt Node
Date: Wed Jul 22 14:13:02 ACST 2020
User: Stacey Dix
Spectrometer: MAYP113282
Scans to average: 1
Trigger mode: 0
Integration Time (sec): 1.000000E-1
Electric dark correction enabled: true
Boxcar width: 0
XAxis mode: Wavelengths
Number of Pixels in Spectrum: 2068
>>>>>Begin Spectral Data<<<<<
198.791	33.33
199.266	100
199.74	185.71
200.215	71.43
200.69	53.85
201.164	51.26
201.639	33.33
202.114	39.01
202.588	58.38
203.063	34.72
203.537	29.94
204.012	48.19
204.486	33.92
204.961	50.28
205.435	7.98
205.909	42.47
206.384	29.15
206.858	26.83
207.332	41.31
207.807	51.54
208.281	33.94
208.755	36.56
209.229	39.66
209.703	42.44
210.177	21.83
210.651	41.28
211.126	27.75
211.6	40.71
212.074	33.33
212.548	51.42
213.021	35.69
213.495	31.84
213.969	40.79
214.443	32.48
214.917	39.25
215.391	30.19
215.864	29.34
216.338	23.19
216.812	31.59
217.286	35.98
217.759	28.53
218.233	26.29
218.706	32.65
219.18	25.06
219.654	31.93
220.127	26.02
220.6	27.07
221.074	31.49
221.547	30.63
222.021	19.54
222.494	30.51
222.967	20.74
223.441	27.07
223.914	24.21
224.387	28.37
224.86	29.27
225.334	27.04
225.807	22.16
226.28	27.07
226.753	25.56
227.226	25.94
227.699	25.92
228.172	27.51
228.645	25.02
229.118	20.77
229.591	27.92
230.064	24.3
230.537	26.13
231.01	24.99
231.482	25.93
231.955	23.84
232.428	23.61
232.901	24.23
233.373	22.2
233.846	28.36
234.319	21.95
234.791	25.45
235.264	24.63
235.736	22.98
236.209	24.25
236.681	25.07
237.154	22.17
237.626	23.12
238.099	24.07
238.571	23.41
239.044	23.16
239.516	23.44
239.988	23.65
240.46	21.65
240.933	22.33
241.405	23.11
241.877	22.07
242.349	21.37
242.821	20.88
243.293	20.96
243.765	21.35
244.237	21.62
244.71	21.03
245.181	21.24
245.653	21.33
246.125	20.79
246.597	20.84
247.069	21.27
247.541	19.23
248.013	20.79
248.485	21.23
248.956	21.42
249.428	19.51
249.9	20.38
250.371	20.6
250.843	19.98
251.315	19.7
251.786	18.81
252.258	18.24
252.729	20.55
253.201	19.55
253.672	18.79
254.144	18.92
254.615	20.15
255.086	18.85
255.558	18.63
256.029	19.05
256.5	19.45
256.972	19.5
257.443	18.74
257.914	19.85
258.385	18.83
258.856	18.57
259.327	18.46
259.799	18.3
260.27	17.87
260.741	18.9
261.212	18.24
261.683	18.65
262.154	18.59
262.624	19.56
263.095	19.35
263.566	18.77
264.037	18.09
264.508	18.63
264.979	18.14
265.449	18.66
265.92	18.56
266.391	18.24
266.861	18.72
267.332	18.44
267.803	18.13
268.273	19.03
268.744	17.55
269.214	17.91
269.685	17.97
270.155	18.6
270.626	19.1
271.096	17.86
271.566	19.49
272.037	18.3
272.507	18.42
272.977	18.47
273.448	16.57
273.918	18.27
274.388	18.19
274.858	16.71
275.328	18.53
275.798	18.29
276.268	17.5
276.738	18.67
277.208	17.28
277.678	18.21
278.148	17.21
278.618	19.09
279.088	18.29
279.558	17.45
280.028	17.68
280.498	18.5
280.968	17.26
281.437	19
281.907	17.45
282.377	16.78
282.847	17.32
283.316	17.73
283.786	18.86
284.255	16.63
284.725	16.71
285.194	17.62
285.664	17.19
286.133	17.07
286.603	16.36
287.072	16.69
287.542	18.59
288.011	18.41
288.48	17.66
288.95	17.59
289.419	18.02
289.888	17.95
290.357	18.01
290.827	17.4
291.296	16.76
291.765	18.38
292.234	17.36
292.703	18.45
293.172	17.58
293.641	18.27
294.11	16.72
294.579	18.43
295.048	18.29
295.517	18.25
295.986	16.92
296.455	18.19
296.923	16.94
297.392	19.3
297.861	18.23
298.33	17.83
298.798	17.79
299.267	17.95
299.736	16.6
300.204	17.66
300.673	17.76
301.141	18.33
301.61	18.54
302.079	18.78
302.547	18.54
303.015	16.94
303.484	18.45
303.952	18.09
304.421	19.85
304.889	17.89
305.357	18.72
305.825	18.57
306.294	19.31
306.762	18.65
307.23	19.18
307.698	18.37
308.166	19.15
308.634	17.2
309.103	18.8
309.571	17.96
310.039	19.12
310.507	19.45
310.975	19.42
311.442	19.28
311.91	19.93
312.378	19.92
312.846	19.44
313.314	19.51
313.782	18.14
314.249	19.49
314.717	19.53
315.185	20.09
315.652	19.49
316.12	20.16
316.588	20.01
317.055	20.5
317.523	20.72
317.99	20.53
318.458	21.42
318.925	20.71
319.393	20.76
319.86	20.35
320.328	21.1
320.795	20.11
321.262	21.41
321.73	21.2
322.197	20.52
322.664	20.75
323.131	21.94
323.598	21.58
324.066	21.3
324.533	21.75
325	22.3
325.467	22.29
325.934	22.05
326.401	22.72
326.868	22.12
327.335	22.93
327.802	21.77
328.269	22.53
328.735	23.95
329.202	24.79
329.669	23.76
330.136	24.6
330.603	25.32
331.069	25.9
331.536	25
332.003	25.69
332.469	25.64
332.936	25.69
333.402	26.93
333.869	27.45
334.336	26.96
334.802	26
335.268	25.48
335.735	26.63
336.201	28.69
336.668	27.66
337.134	27.9
337.6	26.76
338.067	26.24
338.533	26.43
338.999	26.23
339.465	26.78
339.931	26.75
340.398	26.46
340.864	26.07
341.33	26.86
341.796	28.14
342.262	27.27
342.728	27.01
343.194	27.16
343.66	26.49
344.126	26.69
344.592	27.13
345.057	27.33
345.523	27.74
345.989	27.38
346.455	26.18
346.921	28.03
347.386	26.57
347.852	26.01
348.318	27.52
348.783	27.68
349.249	26.12
349.714	27.94
350.18	26.94
350.645	26
351.111	27.37
351.576	27.3
352.042	28.73
352.507	26.14
352.973	28.77
353.438	26.25
353.903	26.45
354.369	27.55
354.834	27.03
355.299	26.61
355.764	27.21
356.229	27.17
356.695	27.35
357.16	26.93
357.625	27.44
358.09	27.67
358.555	26.65
359.02	25.43
359.485	25.45
359.95	27.59
360.415	27.04
360.879	26.17
361.344	26.07
361.809	26.8
362.274	27.19
362.739	26.18
363.203	27.26
363.668	27.02
364.133	26.04
364.597	26.77
365.062	27.11
365.527	26.25
365.991	27.03
366.456	26.8
366.92	26.78
367.385	27.08
367.849	25.6
368.314	26.41
368.778	27.91
369.242	26.08
369.707	27.41
370.171	26.41
370.635	27.11
371.1	27.01
371.564	27.6
372.028	24.5
372.492	27.13
372.956	26.42
373.42	25.17
373.884	24.77
374.348	25.89
374.812	26.01
375.276	26.89
375.74	24.52
376.204	25.51
376.668	24.74
377.132	26.56
377.596	26.24
378.06	24.94
378.524	26.58
378.987	26.43
379.451	25.41
379.915	25.84
380.378	25.72
380.842	26.21
381.306	24.7
381.769	25.46
382.233	24.09
382.696	25.34
383.16	24.85
383.623	25.33
384.087	24.39
384.55	25.22
385.014	26.04
385.477	25.22
385.94	24.56
386.404	25.33
386.867	25.89
387.33	23.45
387.793	25.47
388.256	24.37
388.72	24.72
389.183	23.52
389.646	22.74
390.109	25.06
390.572	24.72
391.035	25.65
391.498	24.23
391.961	24.68
392.424	24.21
392.887	24.36
393.35	24.49
393.812	23.96
394.275	23.5
394.738	25.21
395.201	23.54
395.664	23.77
396.126	23.76
396.589	23.77
397.052	24.42
397.514	25.17
397.977	22.75
398.439	23.22
398.902	25.13
399.364	25.06
399.827	22.24
400.289	23.29
400.752	23.29
401.214	24.25
401.676	24.51
402.139	23.15
402.601	23.84
403.063	23.19
403.525	23.51
403.988	24.73
404.45	23.29
404.912	23.79
405.374	24.03
405.836	22.02
406.298	22.71
406.76	24.09
407.222	24.05
407.684	22.54
408.146	22.76
408.608	22.12
409.07	22.02
409.532	22.26
409.994	23.12
410.456	22.41
410.917	24.19
411.379	22.71
411.841	22.58
412.303	22.06
412.764	21.42
413.226	23.31
413.687	21.29
414.149	22.39
414.611	22.97
415.072	21.87
415.534	22.34
415.995	23.31
416.457	21.56
416.918	22.93
417.379	22.41
417.841	22.71
418.302	21.6
418.763	23.07
419.225	22.94
419.686	22.78
420.147	22.57
420.608	21.94
421.069	23.16
421.53	22.69
421.991	22.94
422.453	24.56
422.914	23.14
423.375	22.19
423.836	22.79
424.297	22.19
424.757	23.05
425.218	22.49
425.679	22.43
426.14	23.51
426.601	21.27
427.062	22.67
427.522	23.44
427.983	22.18
428.444	21.64
428.904	23.03
429.365	21.06
429.826	21.34
430.286	20.98
430.747	20.93
431.207	21.71
431.668	19.63
432.128	21.69
432.589	20.62
433.049	22.69
433.509	20.95
433.97	20.92
434.43	22.18
434.89	22.45
435.351	20.25
435.811	22.41
436.271	21.68
436.731	21.52
437.191	23.49
437.651	22.12
438.112	22
438.572	22.6
439.032	21.95
439.492	21.03
439.952	21.43
440.412	22.24
440.871	20.46
441.331	23.98
441.791	21.17
442.251	21.44
442.711	21.68
443.171	20.98
443.63	21.71
444.09	21.82
444.55	22.83
445.009	21.3
445.469	21.31
445.929	22.8
446.388	21.09
446.848	21.41
447.307	22.52
447.767	20.99
448.226	22.17
448.686	23.66
449.145	22.17
449.604	21.71
450.064	21.94
450.523	21.52
450.982	22.71
451.442	21.67
451.901	21.18
452.36	23.24
452.819	24.1
453.278	20.99
453.737	22.12
454.197	23.22
454.656	23.15
455.115	23.31
455.574	21.45
456.033	23.15
456.492	23.3
456.95	21.99
457.409	22.14
457.868	23.94
458.327	21.51
458.786	23.7
459.245	22.15
459.703	24.63
460.162	22.86
460.621	20.77
461.079	24.86
461.538	22.76
461.997	23.71
462.455	22.43
462.914	23.9
463.372	23.56
463.831	21.35
464.289	22.28
464.748	22.93
465.206	23.32
465.664	24.15
466.123	23.5
466.581	25.77
467.039	25.45
467.497	21.92
467.956	25.24
468.414	25.72
468.872	24.79
469.33	25.59
469.788	25.26
470.246	25.96
470.704	23.95
471.162	24.56
471.62	23.93
472.078	25.76
472.536	26.76
472.994	25.1
473.452	26.59
473.91	26.5
474.368	27.56
474.826	28.89
475.283	28.04
475.741	28.04
476.199	30.1
476.656	30.23
477.114	28.41
477.572	29.38
478.029	30.01
478.487	31.53
478.944	31.77
479.402	30.45
479.859	30.72
480.317	30.3
480.774	32.41
481.232	32.76
481.689	32.2
482.146	33.75
482.604	31.25
483.061	34.46
483.518	33.97
483.975	35.98
484.433	35.7
484.89	33.95
485.347	35.18
485.804	36.97
486.261	36.93
486.718	34.97
487.175	35.73
487.632	37.62
488.089	35.79
488.546	37.46
489.003	39.52
489.46	39.48
489.917	38.92
490.373	38.39
490.83	39.46
491.287	40.15
491.744	39.26
492.2	40.43
492.657	40.53
493.114	38.5
493.57	41.86
494.027	41.12
494.484	40.83
494.94	43.66
495.397	41.14
495.853	44.34
496.31	43.23
496.766	41.69
497.222	43.27
497.679	44.65
498.135	46.41
498.591	43.56
499.048	46.15
499.504	46.42
499.96	45.14
500.416	47.35
500.872	44.95
501.329	45.35
501.785	45.9
502.241	46.05
502.697	47.31
503.153	45.39
503.609	49.13
504.065	45.7
504.521	42.94
504.977	46.68
505.432	46.32
505.888	45.87
506.344	46.52
506.8	46.65
507.256	47.65
507.711	49.88
508.167	44.44
508.623	46.24
509.078	47.33
509.534	46.01
509.99	49.07
510.445	46.76
510.901	48.07
511.356	45.37
511.812	47.36
512.267	48
512.722	47.88
513.178	48.08
513.633	47.39
514.089	47.35
514.544	48.02
514.999	49.24
515.454	49.27
515.91	47.62
516.365	47.98
516.82	48.78
517.275	49.34
517.73	48.58
518.185	49.92
518.64	50.07
519.095	47.91
519.55	49.02
520.005	49.82
520.46	49.34
520.915	47.52
521.37	48.94
521.825	49.66
522.28	48.84
522.734	50.31
523.189	49.8
523.644	47.59
524.099	49.09
524.553	49.49
525.008	50.18
525.462	48.93
525.917	48.75
526.372	50.27
526.826	49.19
527.281	50.97
527.735	50.22
528.19	50.88
528.644	48.8
529.098	49.66
529.553	49.47
530.007	48.02
530.461	49.72
530.916	50.49
531.37	51.45
531.824	50.25
532.278	51.16
532.732	51.16
533.186	49.83
533.641	52.04
534.095	51.88
534.549	50.33
535.003	50.18
535.457	48.28
535.911	49.66
536.365	48.59
536.818	51.41
537.272	51.39
537.726	46.55
538.18	50.48
538.634	51.79
539.087	54.1
539.541	51.2
539.995	51.09
540.449	52.15
540.902	52.03
541.356	50.11
541.809	51.61
542.263	49.63
542.716	49.87
543.17	50.52
543.623	49.55
544.077	49.22
544.53	53.15
544.984	50.17
545.437	50.95
545.89	49.9
546.344	55.12
546.797	49.65
547.25	52.91
547.703	51.16
548.157	53.3
548.61	50.15
549.063	52.04
549.516	52.76
549.969	50.34
550.422	51.42
550.875	51.73
551.328	51.4
551.781	51.49
552.234	51.27
552.687	50.89
553.14	50.54
553.592	52.28
554.045	50.68
554.498	51.92
554.951	52.27
555.404	52.8
555.856	53.43
556.309	50.93
556.762	50.8
557.214	52.51
557.667	50.64
558.119	50.62
558.572	53.16
559.024	51.23
559.477	51.83
559.929	51.35
560.382	51.51
560.834	51.65
561.286	51.48
561.739	51.27
562.191	51.76
562.643	52.41
563.095	53.38
563.548	52.16
564	51.77
564.452	51.49
564.904	51.94
565.356	52.33
565.808	50.86
566.26	51.92
566.712	50.62
567.164	53.38
567.616	52.68
568.068	50.87
568.52	52.82
568.972	51.13
569.424	51.61
569.876	53.2
570.327	52.41
570.779	52.89
571.231	52.35
571.682	51.84
572.134	52.1
572.586	52.27
573.037	52.62
573.489	53.41
573.941	53.11
574.392	53.01
574.844	52.94
575.295	53.54
575.746	52.48
576.198	51.23
576.649	50.71
577.101	52.01
577.552	50.6
578.003	51.34
578.454	53.98
578.906	53.94
579.357	52.97
579.808	53.54
580.259	52.89
580.71	52.23
581.161	52.84
581.612	52.9
582.064	51.15
582.515	52.33
582.965	53.49
583.416	53.1
583.867	52.44
584.318	52.04
584.769	53.07
585.22	53.19
585.671	52
586.122	54.05
586.572	54.68
587.023	52.98
587.474	53.54
587.924	53.35
588.375	53.81
588.826	53.03
589.276	52.78
589.727	52.91
590.177	53.73
590.628	53.55
591.078	52.81
591.529	54.02
591.979	52.54
592.429	54.28
592.88	52.78
593.33	52.67
593.78	54.19
594.231	54.73
594.681	53.98
595.131	53.18
595.581	53.47
596.031	53.38
596.481	54.24
596.932	53.71
597.382	54.42
597.832	52.12
598.282	56.27
598.732	52.9
599.182	52.07
599.632	52.44
600.081	53.82
600.531	53.2
600.981	52.74
601.431	55.76
601.881	53.55
602.33	53.8
602.78	52.98
603.23	53.71
603.679	54.78
604.129	55.23
604.579	53.51
605.028	53.9
605.478	54.89
605.927	53.08
606.377	53.88
606.826	53.84
607.276	53.77
607.725	53.31
608.175	53.17
608.624	52.45
609.073	53.31
609.522	53.58
609.972	54.7
610.421	52.83
610.87	52.87
611.319	53.44
611.768	53.62
612.218	54.42
612.667	53.64
613.116	54.41
613.565	53.11
614.014	53.44
614.463	52.14
614.912	53.86
615.361	52.87
615.81	53.34
616.258	52.43
616.707	53.2
617.156	52.16
617.605	53.72
618.054	53.69
618.502	54.62
618.951	53.52
619.4	54.16
619.848	53.87
620.297	53.72
620.745	54.71
621.194	53.54
621.642	55.54
622.091	53.86
622.539	53.35
622.988	53.06
623.436	53.92
623.885	53.66
624.333	52.13
624.781	54.17
625.23	52.87
625.678	53.18
626.126	53.68
626.574	54.29
627.022	53.99
627.471	53.3
627.919	54.57
628.367	53.89
628.815	54.12
629.263	53.32
629.711	53.06
630.159	53.31
630.607	54.4
631.055	53.33
631.503	54.36
631.95	53.66
632.398	53.43
632.846	52.78
633.294	53.92
633.742	54.92
634.189	54.4
634.637	53.74
635.085	52.89
635.532	53.13
635.98	54.15
636.427	54.48
636.875	55.59
637.323	53.15
637.77	52.79
638.217	52.8
638.665	54.11
639.112	52.46
639.56	52.64
640.007	53.15
640.454	52.58
640.902	53.83
641.349	54.71
641.796	53.75
642.243	53.51
642.69	53.38
643.138	54.02
643.585	52.8
644.032	54.48
644.479	52.37
644.926	53.77
645.373	53.03
645.82	52.22
646.267	53.1
646.714	53.73
647.161	53.48
647.607	52.87
648.054	53.07
648.501	52.43
648.948	53.46
649.395	53.61
649.841	53.79
650.288	53.92
650.735	54.13
651.181	53.71
651.628	53.19
652.075	52.72
652.521	52.86
652.968	52.9
653.414	52.29
653.861	52.8
654.307	52.82
654.753	54.33
655.2	52.77
655.646	52.58
656.092	53.53
656.539	53.76
656.985	53.14
657.431	53.16
657.877	53.27
658.324	53.73
658.77	52.7
659.216	53.12
659.662	52.44
660.108	53.05
660.554	52.71
661	52.19
661.446	52.99
661.892	53.2
662.338	52.79
662.784	54.03
663.23	53.28
663.675	52.73
664.121	53.27
664.567	51.8
665.013	52.71
665.458	52.81
665.904	53.79
666.35	52.47
666.795	52.27
667.241	53.63
667.687	52.3
668.132	52.69
668.578	53.1
669.023	53.35
669.469	52.52
669.914	53.09
670.359	53.94
670.805	52.51
671.25	53.13
671.695	52.91
672.141	52.77
672.586	53.02
673.031	52.61
673.476	52.07
673.922	53.62
674.367	53.25
674.812	51.74
675.257	52.99
675.702	53.33
676.147	53.18
676.592	52.55
677.037	52.54
677.482	52.59
677.927	52.31
678.372	52
678.817	53
679.261	52.54
679.706	52.21
680.151	51.13
680.596	52.63
681.04	52.37
681.485	52.28
681.93	52.7
682.374	52.61
682.819	53.08
683.264	53.31
683.708	52.83
684.153	52.56
684.597	52.51
685.042	52.77
685.486	51.81
685.93	52.18
686.375	51.79
686.819	52.22
687.263	51.36
687.708	51.64
688.152	51.99
688.596	52.6
689.04	52.07
689.485	52.07
689.929	51.7
690.373	52.28
690.817	51.46
691.261	51.06
691.705	50.59
692.149	51.86
692.593	51.6
693.037	51
693.481	51.23
693.925	52.58
694.369	51.94
694.812	51.95
695.256	51.33
695.7	52.49
696.144	51.35
696.587	51.5
697.031	52.43
697.475	51.27
697.918	51.73
698.362	51.75
698.806	52.59
699.249	52.37
699.693	52.63
700.136	50.58
700.58	51.3
701.023	51.77
701.466	52.03
701.91	51.89
702.353	51.43
702.796	52.05
703.24	51.06
703.683	51.09
704.126	51.86
704.569	51.86
705.013	52.18
705.456	51.39
705.899	51.12
706.342	51.32
706.785	51.56
707.228	52.06
707.671	50.75
708.114	51.22
708.557	51.06
709	51.23
709.443	51.84
709.886	51.23
710.328	51.04
710.771	50.61
711.214	51.4
711.657	51.89
712.099	51.67
712.542	51.46
712.985	51.98
713.427	50.02
713.87	51.81
714.313	51.08
714.755	51.09
715.198	50.42
715.64	50.26
716.083	50.5
716.525	50.52
716.967	52.18
717.41	50.3
717.852	51.41
718.295	50.37
718.737	51.84
719.179	50.68
719.621	52.24
720.063	50.28
720.506	50.83
720.948	50.77
721.39	50.92
721.832	51.43
722.274	50.9
722.716	50.78
723.158	50.26
723.6	51.45
724.042	50.38
724.484	50.48
724.926	50.9
725.368	49.95
725.81	51.97
726.251	50.99
726.693	50.94
727.135	50.16
727.577	50.36
728.018	50.49
728.46	51.1
728.902	51.76
729.343	51.69
729.785	50.35
730.226	50.9
730.668	50.96
731.109	50.84
731.551	50.51
731.992	51.06
732.434	51.04
732.875	50.22
733.316	49.84
733.758	51.19
734.199	50.75
734.64	49.56
735.081	51.04
735.523	50.75
735.964	50.27
736.405	50.1
736.846	49.41
737.287	49.93
737.728	50.67
738.169	50.99
738.61	49.68
739.051	50.45
739.492	49.9
739.933	49.38
740.374	50.12
740.815	50.51
741.256	50.41
741.696	50.8
742.137	50.53
742.578	50.34
743.019	50.53
743.459	49.7
743.9	50.85
744.341	50.35
744.781	50.7
745.222	49.64
745.662	49.75
746.103	50.55
746.543	48.69
746.984	50.79
747.424	49.22
747.865	49.86
748.305	50.04
748.745	50.45
749.186	49.46
749.626	50.21
750.066	49.34
750.506	49.04
750.947	49.67
751.387	50.18
751.827	49.95
752.267	49.84
752.707	49.8
753.147	50.06
753.587	48.89
754.027	49.52
754.467	50.69
754.907	50.13
755.347	49.75
755.787	49.34
756.227	50.08
756.667	49.67
757.107	50.66
757.546	49.99
757.986	49.81
758.426	49.96
758.865	49.81
759.305	49.91
759.745	50.16
760.184	49.18
760.624	50.44
761.063	49.81
761.503	49.13
761.943	49.13
762.382	49.59
762.821	49.26
763.261	50.05
763.7	49.56
764.14	50.39
764.579	49.04
765.018	48.08
765.457	49.34
765.897	48.94
766.336	49.2
766.775	49.11
767.214	47.78
767.653	49.83
768.092	48.83
768.531	48.91
768.97	48.53
769.409	48.42
769.848	49.55
770.287	48.59
770.726	48.98
771.165	49.62
771.604	49.15
772.043	48.88
772.482	48.81
772.92	48.58
773.359	48.31
773.798	48.61
774.237	49.46
774.675	49.34
775.114	48.15
775.553	48.66
775.991	49.01
776.43	48.74
776.868	49.05
777.307	49.13
777.745	49.02
778.184	49.07
778.622	48.63
779.06	48.69
779.499	48.35
779.937	49.11
780.375	49.69
780.814	47.38
781.252	49.39
781.69	49.38
782.128	48.41
782.566	48.06
783.004	47.12
783.443	49.56
783.881	48.97
784.319	48.27
784.757	48.95
785.195	48.54
785.633	49.37
786.071	48.86
786.508	48.01
786.946	47.97
787.384	48.55
787.822	48.88
788.26	48.48
788.697	49.42
789.135	48.91
789.573	48.85
790.011	48.92
790.448	48.9
790.886	48.75
791.323	48.17
791.761	48.51
792.198	48.68
792.636	48.35
793.073	48.19
793.511	48.3
793.948	48
794.386	47.86
794.823	47.98
795.26	48.48
795.698	48.04
796.135	48.13
796.572	48.93
797.009	49.28
797.446	48
797.884	48.13
798.321	47.9
798.758	48.24
799.195	47.76
799.632	47.33
800.069	47.74
800.506	48.07
800.943	47.83
801.38	47.93
801.817	47.63
802.254	48.55
802.69	47.8
803.127	48
803.564	48.64
804.001	48.27
804.438	47.46
804.874	48.14
