Data from JCR0016_YellowVentral_Reflection_00003.txt Node
Date: Thu Jul 23 15:39:06 ACST 2020
User: Stacey Dix
Spectrometer: MAYP113282
Scans to average: 1
Trigger mode: 0
Integration Time (sec): 1.000000E-1
Electric dark correction enabled: true
Boxcar width: 0
XAxis mode: Wavelengths
Number of Pixels in Spectrum: 2068
>>>>>Begin Spectral Data<<<<<
198.791	-733.33
199.266	733.33
199.74	95.24
200.215	-95.24
200.69	24.9
201.164	35.56
201.639	57.28
202.114	52.96
202.588	47.74
203.063	50.13
203.537	34.41
204.012	23.22
204.486	29.26
204.961	21.46
205.435	46.07
205.909	23.86
206.384	27.66
206.858	70.79
207.332	44.06
207.807	54.13
208.281	44.28
208.755	24.02
209.229	44.78
209.703	40.24
210.177	62.11
210.651	38.44
211.126	11.49
211.6	44.28
212.074	50.11
212.548	49.34
213.021	43.03
213.495	26.56
213.969	34.17
214.443	2.07
214.917	62.88
215.391	44.18
215.864	54.19
216.338	39.71
216.812	67.47
217.286	26.2
217.759	56.41
218.233	29.84
218.706	55.88
219.18	42.35
219.654	47.57
220.127	63.81
220.6	54.69
221.074	41.63
221.547	53.1
222.021	47.91
222.494	65.49
222.967	40.67
223.441	51.47
223.914	51.07
224.387	61.16
224.86	49.43
225.334	61.86
225.807	62.06
226.28	55.36
226.753	57.1
227.226	63.17
227.699	60.76
228.172	64.19
228.645	55.63
229.118	52.31
229.591	57.95
230.064	57.53
230.537	62.04
231.01	54.09
231.482	59.42
231.955	60.07
232.428	59.21
232.901	61.83
233.373	61.06
233.846	56.44
234.319	56.56
234.791	59.81
235.264	62.94
235.736	52.86
236.209	56.09
236.681	52
237.154	50.01
237.626	53.71
238.099	51.09
238.571	55.69
239.044	51.28
239.516	53.15
239.988	51.78
240.46	50.14
240.933	54.39
241.405	52.88
241.877	52.18
242.349	56.05
242.821	51.95
243.293	54.26
243.765	48.5
244.237	50.14
244.71	48.26
245.181	49.5
245.653	56.84
246.125	51.84
246.597	52.05
247.069	47.87
247.541	50.91
248.013	45.75
248.485	47.51
248.956	46.6
249.428	42.82
249.9	46.62
250.371	47.33
250.843	47.64
251.315	45.84
251.786	43.99
252.258	47.08
252.729	46.88
253.201	47.83
253.672	45.59
254.144	43.57
254.615	43.82
255.086	44.73
255.558	41.31
256.029	42.03
256.5	47.25
256.972	46.06
257.443	44.09
257.914	44.35
258.385	45.56
258.856	43.56
259.327	43.09
259.799	43.27
260.27	44.31
260.741	45.31
261.212	44.62
261.683	45.46
262.154	46.19
262.624	45.24
263.095	42.12
263.566	45.55
264.037	46.5
264.508	46.46
264.979	41.89
265.449	45.2
265.92	44.74
266.391	43.41
266.861	43.45
267.332	46.03
267.803	43.13
268.273	46.85
268.744	44.43
269.214	43.78
269.685	44.93
270.155	40.86
270.626	44.01
271.096	43.24
271.566	42.91
272.037	46
272.507	45.79
272.977	42.95
273.448	45.15
273.918	43.26
274.388	44.62
274.858	42.46
275.328	47.45
275.798	45.09
276.268	44.6
276.738	45.18
277.208	43.18
277.678	45.45
278.148	44.36
278.618	41.74
279.088	43.32
279.558	45.17
280.028	40.38
280.498	44.1
280.968	42.96
281.437	42.55
281.907	42.86
282.377	43.24
282.847	42.27
283.316	42.95
283.786	43.33
284.255	40.57
284.725	42.3
285.194	42.72
285.664	42.88
286.133	42.72
286.603	43.07
287.072	44.92
287.542	41.55
288.011	41.67
288.48	43.39
288.95	41.58
289.419	41.03
289.888	44.54
290.357	39.22
290.827	39.97
291.296	42.18
291.765	42.04
292.234	41.83
292.703	42.44
293.172	44.24
293.641	41.04
294.11	41.28
294.579	43.67
295.048	40.25
295.517	40.33
295.986	40.23
296.455	41.57
296.923	39.58
297.392	40.62
297.861	39.68
298.33	38.57
298.798	38.95
299.267	41.91
299.736	38.04
300.204	39.65
300.673	40.33
301.141	40.92
301.61	40.63
302.079	39.99
302.547	37.88
303.015	40.13
303.484	38.84
303.952	40.1
304.421	36.98
304.889	37.22
305.357	39.99
305.825	36.96
306.294	41.26
306.762	38.81
307.23	37.25
307.698	36.63
308.166	36.74
308.634	38.86
309.103	37.44
309.571	37.31
310.039	36.65
310.507	37.28
310.975	38.28
311.442	37.31
311.91	38.31
312.378	39.17
312.846	35.01
313.314	36.83
313.782	37.68
314.249	34.76
314.717	33.8
315.185	36.11
315.652	33.67
316.12	36.02
316.588	34.64
317.055	37.45
317.523	35.33
317.99	36.69
318.458	38.38
318.925	36.92
319.393	34.86
319.86	35.22
320.328	35.6
320.795	37.95
321.262	35.82
321.73	35.94
322.197	35.74
322.664	34.42
323.131	37.38
323.598	35.44
324.066	37.41
324.533	37.11
325	36.21
325.467	37.16
325.934	34.77
326.401	36.76
326.868	38.44
327.335	35.54
327.802	37.21
328.269	36.31
328.735	38.73
329.202	37.81
329.669	38.63
330.136	38.05
330.603	37.05
331.069	37.98
331.536	40.68
332.003	37.58
332.469	39.04
332.936	37.08
333.402	39.04
333.869	39.63
334.336	41.93
334.802	38.36
335.268	36.74
335.735	38.31
336.201	39.28
336.668	38.45
337.134	41.46
337.6	36.27
338.067	39.52
338.533	35.52
338.999	39.43
339.465	37.21
339.931	37.27
340.398	38.29
340.864	35.58
341.33	39.28
341.796	36.13
342.262	38.25
342.728	37.21
343.194	38.27
343.66	38.02
344.126	36.7
344.592	35.6
345.057	37.44
345.523	38.13
345.989	36.24
346.455	38.12
346.921	37.73
347.386	36.11
347.852	36.95
348.318	35.4
348.783	35.24
349.249	35.64
349.714	36.36
350.18	33.95
350.645	38.33
351.111	34.06
351.576	37.35
352.042	33.94
352.507	33.67
352.973	34.49
353.438	32.93
353.903	34.08
354.369	33.57
354.834	33.22
355.299	34.6
355.764	33.88
356.229	34.5
356.695	34.65
357.16	35.52
357.625	32.98
358.09	34.04
358.555	33.68
359.02	37.14
359.485	33.9
359.95	30.98
360.415	36.24
360.879	35.22
361.344	33.88
361.809	32.63
362.274	32.76
362.739	32.11
363.203	33.13
363.668	33.25
364.133	31.9
364.597	32.03
365.062	31.4
365.527	31.81
365.991	27.02
366.456	32.06
366.92	31.15
367.385	31.17
367.849	30.74
368.314	31.28
368.778	31.25
369.242	31.91
369.707	30.93
370.171	32.22
370.635	30.5
371.1	29.65
371.564	30.97
372.028	32.55
372.492	30.22
372.956	30.03
373.42	31.57
373.884	29.05
374.348	30.89
374.812	32.53
375.276	30.75
375.74	29.55
376.204	32.1
376.668	31.77
377.132	29.46
377.596	30.55
378.06	29.67
378.524	28.37
378.987	29.92
379.451	29.47
379.915	28.46
380.378	29.14
380.842	29.23
381.306	29.55
381.769	27.98
382.233	30.67
382.696	30.94
383.16	28.22
383.623	29.13
384.087	28.6
384.55	30.63
385.014	28.2
385.477	28.06
385.94	29.6
386.404	27.49
386.867	29.08
387.33	27.82
387.793	28.02
388.256	27.39
388.72	26.97
389.183	27.4
389.646	28.48
390.109	27.31
390.572	28.01
391.035	28
391.498	30.23
391.961	27.53
392.424	29.03
392.887	27.6
393.35	28.55
393.812	29.65
394.275	27.4
394.738	28.2
395.201	28.49
395.664	27.03
396.126	26.89
396.589	26.12
397.052	26.97
397.514	25.64
397.977	26.73
398.439	27.47
398.902	26.74
399.364	26.69
399.827	25.82
400.289	26.51
400.752	27.4
401.214	24.95
401.676	25.22
402.139	23.67
402.601	27.17
403.063	25.33
403.525	25.99
403.988	26.53
404.45	26.15
404.912	23.71
405.374	26.01
405.836	23.99
406.298	26.68
406.76	25.62
407.222	25.82
407.684	24.64
408.146	26.33
408.608	23.96
409.07	24.01
409.532	23.54
409.994	23.87
410.456	27.62
410.917	25.73
411.379	23.8
411.841	24.68
412.303	26.17
412.764	24.54
413.226	23.18
413.687	23.97
414.149	24.27
414.611	23.79
415.072	23.52
415.534	25.39
415.995	25.65
416.457	24.63
416.918	24.83
417.379	23.93
417.841	24.08
418.302	25.29
418.763	24.59
419.225	23.84
419.686	24.54
420.147	23.07
420.608	24.05
421.069	24.52
421.53	23.72
421.991	23.28
422.453	23.5
422.914	25.83
423.375	24.37
423.836	24.93
424.297	24.5
424.757	25.59
425.218	22.89
425.679	23.2
426.14	25.45
426.601	23.64
427.062	22.19
427.522	23.91
427.983	25.82
428.444	22.28
428.904	27.46
429.365	25.02
429.826	24.24
430.286	21.91
430.747	26.14
431.207	24.43
431.668	23.73
432.128	23.73
432.589	27.07
433.049	21.76
433.509	21.25
433.97	25.1
434.43	21.7
434.89	24.29
435.351	23.34
435.811	22.81
436.271	23.86
436.731	25.11
437.191	23.63
437.651	24.37
438.112	25.02
438.572	25
439.032	24.59
439.492	24.86
439.952	24.84
440.412	21.82
440.871	24.66
441.331	21.24
441.791	24.88
442.251	24.1
442.711	24.05
443.171	24.77
443.63	25.57
444.09	25.64
444.55	23.1
445.009	24.93
445.469	25.65
445.929	24.12
446.388	25.11
446.848	27.3
447.307	24.83
447.767	24.58
448.226	23.98
448.686	22.43
449.145	24.5
449.604	22.65
450.064	24.71
450.523	24.14
450.982	26.59
451.442	25
451.901	22.84
452.36	23.6
452.819	26.5
453.278	27.25
453.737	27.38
454.197	26.08
454.656	25.36
455.115	27.33
455.574	22.89
456.033	26.71
456.492	25.76
456.95	23.12
457.409	26.18
457.868	27.66
458.327	27.77
458.786	25.71
459.245	24.97
459.703	25.18
460.162	28.15
460.621	22.97
461.079	23.46
461.538	26.52
461.997	25.56
462.455	25.73
462.914	25.29
463.372	25.68
463.831	27.54
464.289	28.17
464.748	23.9
465.206	25.85
465.664	26.02
466.123	28.21
466.581	25.38
467.039	25.49
467.497	28.18
467.956	26.52
468.414	29.45
468.872	28.56
469.33	28.38
469.788	26.55
470.246	26.79
470.704	27.12
471.162	30.87
471.62	30.12
472.078	28.78
472.536	27.88
472.994	28.36
473.452	30.15
473.91	28.35
474.368	33.74
474.826	30.87
475.283	32.74
475.741	28.69
476.199	30.78
476.656	32.33
477.114	32.85
477.572	32.32
478.029	31.04
478.487	32.74
478.944	32.04
479.402	33.28
479.859	34.12
480.317	34.18
480.774	34.18
481.232	36.93
481.689	36.55
482.146	33.07
482.604	34.75
483.061	37.33
483.518	38.7
483.975	35.15
484.433	33.56
484.89	33.39
485.347	40.36
485.804	39.14
486.261	38.56
486.718	39.65
487.175	35.98
487.632	36.47
488.089	41.61
488.546	36.02
489.003	38.37
489.46	38.62
489.917	43.71
490.373	43.42
490.83	44.39
491.287	45.53
491.744	45.93
492.2	40.06
492.657	44.07
493.114	40.91
493.57	42.41
494.027	43.58
494.484	44.75
494.94	38.6
495.397	43.03
495.853	45.5
496.31	45.57
496.766	39.62
497.222	47.15
497.679	46.72
498.135	49.25
498.591	44.48
499.048	42.41
499.504	43.14
499.96	43.56
500.416	46.55
500.872	43.04
501.329	45.1
501.785	46.97
502.241	46.62
502.697	41.84
503.153	46.22
503.609	44
504.065	44.42
504.521	45.73
504.977	47.29
505.432	46.54
505.888	46.77
506.344	50.65
506.8	43.26
507.256	49.6
507.711	45.19
508.167	50.01
508.623	48.3
509.078	47.86
509.534	50.19
509.99	49.59
510.445	51
510.901	45.71
511.356	47.25
511.812	49.3
512.267	48.22
512.722	48.09
513.178	48.9
513.633	47.49
514.089	46.68
514.544	49.03
514.999	46.33
515.454	48.57
515.91	47.91
516.365	47.14
516.82	46.54
517.275	45.93
517.73	45.9
518.185	47.02
518.64	49.1
519.095	49.19
519.55	50.23
520.005	48.72
520.46	49.68
520.915	50.3
521.37	50.66
521.825	47.24
522.28	48.2
522.734	48.09
523.189	48.21
523.644	48.89
524.099	46.14
524.553	50.26
525.008	46.2
525.462	47.95
525.917	48.47
526.372	47.69
526.826	48.57
527.281	50.23
527.735	48.54
528.19	50.55
528.644	48.19
529.098	47.07
529.553	50.31
530.007	48.06
530.461	48.61
530.916	48.06
531.37	48.76
531.824	48.07
532.278	47.79
532.732	48.19
533.186	47.25
533.641	51.38
534.095	50.81
534.549	49.52
535.003	50.17
535.457	50.38
535.911	47.98
536.365	49.97
536.818	47.77
537.272	47.98
537.726	49.2
538.18	48.08
538.634	51.23
539.087	47.01
539.541	50.35
539.995	51.4
540.449	48.82
540.902	48.25
541.356	48.98
541.809	48.66
542.263	47.32
542.716	49.53
543.17	50.01
543.623	49.64
544.077	47.99
544.53	50.58
544.984	46.47
545.437	52.65
545.89	49.93
546.344	48.04
546.797	49.49
547.25	52.06
547.703	47.94
548.157	51.82
548.61	48.72
549.063	49.15
549.516	47.58
549.969	49.3
550.422	50.3
550.875	50.19
551.328	49.27
551.781	48.57
552.234	48.6
552.687	51.4
553.14	48.12
553.592	52.19
554.045	49.53
554.498	47.73
554.951	48.3
555.404	50.96
555.856	49.4
556.309	53.74
556.762	53.08
557.214	51.68
557.667	50.49
558.119	50.91
558.572	52.2
559.024	52.45
559.477	49.29
559.929	51.41
560.382	50.04
560.834	48.43
561.286	50.4
561.739	52.23
562.191	48.91
562.643	52.61
563.095	51.93
563.548	50.33
564	51.12
564.452	50.32
564.904	50.45
565.356	51.08
565.808	48.38
566.26	51.07
566.712	50.7
567.164	51.71
567.616	50.03
568.068	50.34
568.52	50.78
568.972	49.17
569.424	52.7
569.876	52.12
570.327	51.21
570.779	50.57
571.231	47.27
571.682	51.27
572.134	50.11
572.586	48.71
573.037	51.25
573.489	51.35
573.941	51.6
574.392	46.73
574.844	50.88
575.295	52.55
575.746	48.45
576.198	49.64
576.649	49.7
577.101	50.05
577.552	50.92
578.003	48.63
578.454	48.82
578.906	49.51
579.357	50.92
579.808	51.06
580.259	51.95
580.71	48.59
581.161	51.08
581.612	51.88
582.064	51.14
582.515	49.98
582.965	51.37
583.416	50.32
583.867	52.18
584.318	50.1
584.769	50.3
585.22	50.61
585.671	51.76
586.122	49.27
586.572	51.24
587.023	51.29
587.474	53.01
587.924	52.07
588.375	51.99
588.826	52.42
589.276	48.74
589.727	53.53
590.177	51.62
590.628	51.31
591.078	53.32
591.529	51.34
591.979	55.56
592.429	52.37
592.88	53.01
593.33	53.56
593.78	54.03
594.231	52.05
594.681	53.1
595.131	52.76
595.581	53.8
596.031	52.92
596.481	53.78
596.932	51.29
597.382	53.89
597.832	51.86
598.282	53.07
598.732	52.04
599.182	52.71
599.632	52.63
600.081	52.33
600.531	52.82
600.981	52.77
601.431	52.48
601.881	53.76
602.33	50.75
602.78	52.51
603.23	53.23
603.679	51.57
604.129	49.73
604.579	52.64
605.028	55.28
605.478	53.03
605.927	55.12
606.377	50.63
606.826	51.32
607.276	52.89
607.725	52.29
608.175	54.05
608.624	51.77
609.073	52.26
609.522	52.76
609.972	51.76
610.421	55.54
610.87	52.73
611.319	52.1
611.768	52.13
612.218	53.74
612.667	53.67
613.116	53.02
613.565	52.13
614.014	50.04
614.463	53.07
614.912	52.28
615.361	52.4
615.81	54.24
616.258	54.55
616.707	52.68
617.156	52.97
617.605	54.11
618.054	53.67
618.502	53.11
618.951	52.55
619.4	52.91
619.848	53.27
620.297	52.37
620.745	50.74
621.194	50.98
621.642	52.26
622.091	53.04
622.539	53.58
622.988	51.64
623.436	51.75
623.885	51.47
624.333	51.64
624.781	52.3
625.23	53.59
625.678	51.2
626.126	51.79
626.574	52.07
627.022	53.81
627.471	52.94
627.919	53.19
628.367	53.37
628.815	51.49
629.263	53.01
629.711	52.81
630.159	52.14
630.607	53.97
631.055	53.48
631.503	53.12
631.95	54.1
632.398	52.56
632.846	53.85
633.294	52.85
633.742	53.49
634.189	52.65
634.637	53.28
635.085	53.45
635.532	54.19
635.98	52.03
636.427	52.77
636.875	52.79
637.323	52.54
637.77	50.81
638.217	53.06
638.665	52.7
639.112	52.74
639.56	52.72
640.007	53.64
640.454	52.91
640.902	53.68
641.349	53.48
641.796	52.89
642.243	53.95
642.69	51.82
643.138	52.7
643.585	53.46
644.032	51.01
644.479	52.54
644.926	51.89
645.373	51.81
645.82	53.43
646.267	53.43
646.714	52.75
647.161	52.02
647.607	52.65
648.054	50.73
648.501	53.6
648.948	52.09
649.395	52.51
649.841	51.47
650.288	53.33
650.735	53.41
651.181	52.85
651.628	53.93
652.075	53.56
652.521	53.16
652.968	51.09
653.414	52.25
653.861	54.94
654.307	54.05
654.753	53.1
655.2	52.76
655.646	52.57
656.092	51.25
656.539	53
656.985	51.87
657.431	53.85
657.877	53.02
658.324	53.23
658.77	52.51
659.216	51.98
659.662	52.08
660.108	53.32
660.554	54.28
661	52.46
661.446	50.78
661.892	53.3
662.338	53.62
662.784	51.23
663.23	53.28
663.675	52.33
664.121	52.82
664.567	53.34
665.013	52.25
665.458	52.86
665.904	53.05
666.35	51.05
666.795	52.49
667.241	53.56
667.687	52.1
668.132	52.93
668.578	51.98
669.023	53.26
669.469	54.92
669.914	50.26
670.359	54.09
670.805	52.24
671.25	51.9
671.695	52.7
672.141	50.76
672.586	52.62
673.031	52.66
673.476	51.42
673.922	52.05
674.367	51.74
674.812	51.51
675.257	52.84
675.702	50.88
676.147	52.33
676.592	52.37
677.037	51.96
677.482	51.11
677.927	53.45
678.372	53.37
678.817	51.29
679.261	53.93
679.706	54.63
680.151	52.52
680.596	52.47
681.04	51.23
681.485	50.97
681.93	52.23
682.374	53.22
682.819	52.68
683.264	52.42
683.708	52
684.153	52.4
684.597	52.95
685.042	52.37
685.486	51.83
685.93	52.26
686.375	51.21
686.819	52.5
687.263	51.6
687.708	51.5
688.152	54.1
688.596	53.24
689.04	53.24
689.485	51.18
689.929	51.91
690.373	52.6
690.817	52.23
691.261	51.2
691.705	51.94
692.149	50.83
692.593	52.8
693.037	52.8
693.481	53.1
693.925	51.16
694.369	51.34
694.812	51.81
695.256	50.99
695.7	50.45
696.144	52.55
696.587	50.79
697.031	51.73
697.475	51.36
697.918	52.5
698.362	51.92
698.806	52.13
699.249	52.46
699.693	52.1
700.136	50.17
700.58	51.57
701.023	51.4
701.466	52.67
701.91	50.93
702.353	51.76
702.796	51.4
703.24	51.83
703.683	50.95
704.126	52.21
704.569	51.83
705.013	51.28
705.456	50.18
705.899	51.85
706.342	52.42
706.785	51.62
707.228	52.17
707.671	51
708.114	51.85
708.557	52.25
709	50.14
709.443	51.34
709.886	50.23
710.328	51.22
710.771	51.04
711.214	52.14
711.657	53.52
712.099	51.23
712.542	52.06
712.985	52.07
713.427	51.74
713.87	51.69
714.313	50.58
714.755	51.44
715.198	51.73
715.64	50.11
716.083	51.76
716.525	51.67
716.967	50.31
717.41	51.64
717.852	50.75
718.295	51.19
718.737	50.89
719.179	51.95
719.621	51.15
720.063	51.46
720.506	52.53
720.948	51.19
721.39	51.32
721.832	50.62
722.274	50.27
722.716	50.51
723.158	51.97
723.6	51.24
724.042	51.11
724.484	51.13
724.926	50.87
725.368	50.93
725.81	50.87
726.251	50.47
726.693	50.55
727.135	52.23
727.577	49.67
728.018	50.89
728.46	51.43
728.902	49.91
729.343	50.94
729.785	50.8
730.226	49.76
730.668	48.83
731.109	50.38
731.551	50.22
731.992	50.5
732.434	51.69
732.875	49.35
733.316	52.17
733.758	50.29
734.199	50.92
734.64	51.6
735.081	52.98
735.523	49.94
735.964	52.12
736.405	50.57
736.846	50.45
737.287	51.14
737.728	49.39
738.169	49.55
738.61	50.33
739.051	49.3
739.492	51.06
739.933	51.55
740.374	49.52
740.815	49.13
741.256	50.57
741.696	51.26
742.137	49.61
742.578	50.57
743.019	49.6
743.459	51.79
743.9	49.73
744.341	49.89
744.781	49.9
745.222	50.6
745.662	50.74
746.103	51.24
746.543	49.43
746.984	50.38
747.424	49.86
747.865	50.75
748.305	50.8
748.745	49.54
749.186	48.69
749.626	50.64
750.066	50.97
750.506	50.77
750.947	49.9
751.387	52.12
751.827	50.02
752.267	49.96
752.707	49.84
753.147	50.23
753.587	50.92
754.027	49.53
754.467	51.82
754.907	50.66
755.347	48.45
755.787	50.54
756.227	50.94
756.667	49.42
757.107	50.57
757.546	50.33
757.986	49.92
758.426	50.45
758.865	50.48
759.305	50.46
759.745	49.01
760.184	50.6
760.624	50.07
761.063	50.7
761.503	50.38
761.943	50.1
762.382	50.8
762.821	50.32
763.261	49.53
763.7	49.96
764.14	50.75
764.579	49.88
765.018	50.25
765.457	49.67
765.897	50.92
766.336	49.33
766.775	50.9
767.214	50.75
767.653	49.59
768.092	50.18
768.531	49.52
768.97	49.83
769.409	49.26
769.848	49.59
770.287	49.84
770.726	50.37
771.165	49.78
771.604	50.25
772.043	50.15
772.482	50.41
772.92	48.93
773.359	50.4
773.798	49.98
774.237	49.37
774.675	50.15
775.114	50.04
775.553	48.99
775.991	50.96
776.43	50.7
776.868	50.27
777.307	48.95
777.745	50.7
778.184	50.21
778.622	50.13
779.06	49.45
779.499	50.84
779.937	48.04
780.375	50.01
780.814	48.58
781.252	48.76
781.69	50.22
782.128	50.29
782.566	49.7
783.004	48.73
783.443	49.61
783.881	48.77
784.319	50.03
784.757	49.58
785.195	49.71
785.633	50.91
786.071	48.74
786.508	49.47
786.946	49.88
787.384	48.91
787.822	50.34
788.26	49.22
788.697	50.16
789.135	50.95
789.573	49.82
790.011	49.25
790.448	49.57
790.886	49.73
791.323	49.39
791.761	50.93
792.198	49.35
792.636	49.75
793.073	49.69
793.511	49.12
793.948	49.07
794.386	49.48
794.823	49.83
795.26	50.25
795.698	47.9
796.135	49.17
796.572	49.16
797.009	49.75
797.446	49.85
797.884	50.16
798.321	49.45
798.758	49.68
799.195	49.42
799.632	49.43
800.069	48.51
800.506	49.92
800.943	49.72
801.38	49.87
801.817	49.71
802.254	47.58
802.69	50.12
803.127	50.22
803.564	48
804.001	49.06
804.438	49.47
804.874	49.19
