Data from JCR0013_YellowVentral_Reflection_16-29-23-863.txt Node
Date: Fri Jul 31 16:29:23 ACST 2020
User: Stacey Dix
Spectrometer: MAYP113282
Scans to average: 1
Trigger mode: 0
Integration Time (sec): 1.000000E-1
Electric dark correction enabled: true
Boxcar width: 0
XAxis mode: Wavelengths
Number of Pixels in Spectrum: 2068
>>>>>Begin Spectral Data<<<<<
198.791	800
199.266	135.71
199.74	80
200.215	-100
200.69	29.2
201.164	32.93
201.639	28.29
202.114	-7.69
202.588	82.52
203.063	46.41
203.537	30.05
204.012	36.36
204.486	32.56
204.961	28.37
205.435	4.08
205.909	50
206.384	27.74
206.858	50.63
207.332	59.68
207.807	-0.76
208.281	40.37
208.755	18.39
209.229	23.84
209.703	26.07
210.177	22.16
210.651	38.72
211.126	6.55
211.6	66.54
212.074	8.66
212.548	24.06
213.021	18.7
213.495	42.91
213.969	43.73
214.443	16.73
214.917	23.37
215.391	35.06
215.864	23.93
216.338	16.37
216.812	11.43
217.286	20.12
217.759	22.51
218.233	15.65
218.706	27.73
219.18	31.4
219.654	16.83
220.127	20
220.6	31.89
221.074	16.52
221.547	17.37
222.021	14.19
222.494	13.91
222.967	20.73
223.441	16.37
223.914	14.96
224.387	19.62
224.86	12.03
225.334	11.12
225.807	19.28
226.28	9.63
226.753	15.9
227.226	23.63
227.699	18.59
228.172	17.49
228.645	16.94
229.118	18.49
229.591	12.59
230.064	14.53
230.537	18.53
231.01	14.42
231.482	17.09
231.955	16.04
232.428	14.69
232.901	13.85
233.373	15.81
233.846	16.07
234.319	15.56
234.791	14.9
235.264	14.72
235.736	15.01
236.209	16.47
236.681	17.49
237.154	14.74
237.626	15.62
238.099	14.56
238.571	15
239.044	15.17
239.516	16.35
239.988	14.67
240.46	15.23
240.933	14.3
241.405	15.9
241.877	15.53
242.349	13.79
242.821	14
243.293	14.42
243.765	14.14
244.237	14.91
244.71	15.89
245.181	14.76
245.653	14.01
246.125	13.22
246.597	14.04
247.069	14.95
247.541	13.47
248.013	14.43
248.485	13.21
248.956	13.75
249.428	14.11
249.9	14.39
250.371	12.58
250.843	13.68
251.315	12.84
251.786	12.99
252.258	12.54
252.729	13.12
253.201	13.25
253.672	13.28
254.144	12.4
254.615	12.25
255.086	12.11
255.558	12.5
256.029	12.59
256.5	13.49
256.972	12.85
257.443	13.12
257.914	11.11
258.385	12.4
258.856	13.58
259.327	13
259.799	12.34
260.27	12.87
260.741	12.35
261.212	13.34
261.683	12.79
262.154	12.15
262.624	13.15
263.095	12.75
263.566	12.37
264.037	11.96
264.508	12.52
264.979	12.58
265.449	12.94
265.92	12.43
266.391	11.81
266.861	12.61
267.332	12.58
267.803	13.1
268.273	12.06
268.744	12.51
269.214	12.27
269.685	12.41
270.155	11.1
270.626	11.81
271.096	11.77
271.566	12.15
272.037	12.26
272.507	11.87
272.977	12.97
273.448	12.29
273.918	12.72
274.388	12.92
274.858	12.46
275.328	11.31
275.798	13.93
276.268	12.22
276.738	10.85
277.208	11.36
277.678	12.56
278.148	12.9
278.618	12.14
279.088	12.44
279.558	11.56
280.028	11.8
280.498	11.16
280.968	11.81
281.437	11.25
281.907	11.68
282.377	11.3
282.847	11.6
283.316	11.35
283.786	11.86
284.255	10.47
284.725	11.2
285.194	12.29
285.664	12.42
286.133	10.45
286.603	12.19
287.072	12.54
287.542	11.76
288.011	11.9
288.48	10.99
288.95	12.98
289.419	11.53
289.888	11.76
290.357	11.72
290.827	12.44
291.296	11.86
291.765	12.49
292.234	12.2
292.703	12.06
293.172	13.48
293.641	11.26
294.11	12.55
294.579	12.08
295.048	12.23
295.517	12.33
295.986	11.81
296.455	12.73
296.923	13.14
297.392	12.23
297.861	12.48
298.33	11.85
298.798	13.42
299.267	12.32
299.736	11.86
300.204	13.24
300.673	12.8
301.141	13.09
301.61	13.34
302.079	12.63
302.547	12.5
303.015	13.98
303.484	12.65
303.952	12.77
304.421	13.34
304.889	14.46
305.357	12.82
305.825	13.11
306.294	12.74
306.762	13.62
307.23	13.31
307.698	13.65
308.166	12.54
308.634	13.05
309.103	14.06
309.571	13.4
310.039	13.96
310.507	15.17
310.975	14.55
311.442	14.33
311.91	13.46
312.378	14.3
312.846	13.14
313.314	15.41
313.782	14.8
314.249	14.42
314.717	14.8
315.185	15.5
315.652	14.93
316.12	14.37
316.588	14.85
317.055	14.95
317.523	15.7
317.99	14.5
318.458	14.8
318.925	14.8
319.393	14.79
319.86	13.79
320.328	15.69
320.795	16.33
321.262	16.39
321.73	16.15
322.197	15.26
322.664	16.15
323.131	15.05
323.598	15.19
324.066	17.1
324.533	16.38
325	16.8
325.467	16.7
325.934	16.89
326.401	17.96
326.868	18.43
327.335	18.68
327.802	18.9
328.269	19.18
328.735	18.64
329.202	19.92
329.669	19.41
330.136	20.6
330.603	22.04
331.069	22.03
331.536	22.55
332.003	23.05
332.469	21.85
332.936	22.35
333.402	23.12
333.869	23.75
334.336	23.56
334.802	24.95
335.268	23.69
335.735	24.25
336.201	25.61
336.668	23.64
337.134	24.51
337.6	25.36
338.067	24.93
338.533	22.93
338.999	24.01
339.465	24.87
339.931	24.57
340.398	24.85
340.864	24.32
341.33	24.51
341.796	23.43
342.262	24.55
342.728	24.03
343.194	26.46
343.66	24.4
344.126	23.82
344.592	24.5
345.057	25.37
345.523	24.33
345.989	23.72
346.455	24.02
346.921	23.38
347.386	24.6
347.852	23.95
348.318	24.22
348.783	23.55
349.249	24.41
349.714	23.55
350.18	23.75
350.645	24.09
351.111	23.85
351.576	23.42
352.042	24.19
352.507	23.32
352.973	23.69
353.438	23.4
353.903	23.51
354.369	24.03
354.834	22.85
355.299	23.5
355.764	25.74
356.229	25.05
356.695	24.62
357.16	23.74
357.625	22.32
358.09	25.24
358.555	23.37
359.02	25.25
359.485	22.43
359.95	23.97
360.415	24.24
360.879	24.83
361.344	25.15
361.809	23.57
362.274	23.46
362.739	22.41
363.203	24.57
363.668	23.36
364.133	24.61
364.597	24.15
365.062	22.88
365.527	23.08
365.991	22.83
366.456	24.37
366.92	24.17
367.385	23.37
367.849	23.28
368.314	22.76
368.778	22.94
369.242	23.24
369.707	23.79
370.171	23.36
370.635	23.41
371.1	22.28
371.564	22.29
372.028	23.12
372.492	21.65
372.956	22.1
373.42	24.03
373.884	24.06
374.348	20.37
374.812	21.31
375.276	22.57
375.74	22.34
376.204	23.17
376.668	22.42
377.132	23.35
377.596	22.91
378.06	21.96
378.524	22.98
378.987	21.6
379.451	21.23
379.915	21.27
380.378	20.23
380.842	24.69
381.306	21.24
381.769	23.37
382.233	22.02
382.696	21.57
383.16	21.06
383.623	21.81
384.087	21.82
384.55	18.96
385.014	20.01
385.477	20.5
385.94	19.58
386.404	20.8
386.867	19.24
387.33	20.68
387.793	21.49
388.256	19.61
388.72	20.02
389.183	20.23
389.646	21.58
390.109	20.52
390.572	19.63
391.035	19.61
391.498	20.24
391.961	19.93
392.424	17.84
392.887	20.83
393.35	17.87
393.812	20.06
394.275	19.38
394.738	21.08
395.201	20.16
395.664	20.43
396.126	20.58
396.589	19.99
397.052	18.47
397.514	18.62
397.977	20.53
398.439	19.49
398.902	17.58
399.364	19.01
399.827	17.95
400.289	18.45
400.752	18.74
401.214	17.69
401.676	20.19
402.139	18.02
402.601	19.27
403.063	18.91
403.525	19.7
403.988	17.21
404.45	16.33
404.912	17.11
405.374	19.17
405.836	16.81
406.298	17.61
406.76	17.8
407.222	16.14
407.684	17.85
408.146	16.04
408.608	17.05
409.07	17.12
409.532	16.84
409.994	17.78
410.456	16.67
410.917	18.41
411.379	16.49
411.841	17.91
412.303	16.96
412.764	16.21
413.226	17.03
413.687	16.64
414.149	17.34
414.611	17.77
415.072	16.48
415.534	16.44
415.995	17.11
416.457	16.86
416.918	17.5
417.379	17.28
417.841	16.81
418.302	18.48
418.763	17.5
419.225	17.2
419.686	17.71
420.147	16.33
420.608	17.48
421.069	16.61
421.53	17.97
421.991	18.38
422.453	17.18
422.914	18.13
423.375	17.64
423.836	17.31
424.297	18.61
424.757	16.82
425.218	18.69
425.679	16.3
426.14	17.8
426.601	18.48
427.062	17.86
427.522	19.71
427.983	19.4
428.444	19.35
428.904	19.25
429.365	21.01
429.826	17.33
430.286	20.41
430.747	18.58
431.207	17.51
431.668	18.7
432.128	19.34
432.589	20.57
433.049	18.23
433.509	20.14
433.97	19.22
434.43	21.22
434.89	18.49
435.351	21.92
435.811	19.31
436.271	20.32
436.731	20.07
437.191	21.9
437.651	18.49
438.112	21.17
438.572	18.58
439.032	19.91
439.492	18.98
439.952	19.36
440.412	20.71
440.871	23.04
441.331	19.24
441.791	19.63
442.251	19.49
442.711	20.92
443.171	22.06
443.63	22.71
444.09	22.47
444.55	19.86
445.009	21.52
445.469	20.84
445.929	20
446.388	21.84
446.848	19.81
447.307	18.71
447.767	22.88
448.226	21.21
448.686	20.15
449.145	20.06
449.604	20.64
450.064	23.23
450.523	20.22
450.982	21.86
451.442	21.79
451.901	22.69
452.36	21.04
452.819	20.16
453.278	19.94
453.737	20.85
454.197	19.4
454.656	22.79
455.115	22.96
455.574	20.79
456.033	20.87
456.492	21.8
456.95	22.63
457.409	22.87
457.868	23.02
458.327	21.85
458.786	22.24
459.245	22.62
459.703	22.43
460.162	25.34
460.621	23.72
461.079	24.21
461.538	19.97
461.997	21.27
462.455	22.8
462.914	22.64
463.372	22.28
463.831	23.94
464.289	24.21
464.748	21.84
465.206	23.09
465.664	24.85
466.123	22.54
466.581	22.42
467.039	23.93
467.497	22.35
467.956	23.6
468.414	24.5
468.872	21.33
469.33	23.82
469.788	24.7
470.246	23.66
470.704	24.67
471.162	23.95
471.62	23.97
472.078	25.47
472.536	22.19
472.994	26.27
473.452	24.2
473.91	20.92
474.368	21.34
474.826	23.83
475.283	26.25
475.741	25.72
476.199	25.43
476.656	24.69
477.114	26.24
477.572	24.41
478.029	25.31
478.487	25.93
478.944	27.47
479.402	29.41
479.859	26.22
480.317	25.5
480.774	27.88
481.232	26.92
481.689	27.24
482.146	27.7
482.604	27.8
483.061	28.19
483.518	26.31
483.975	27.55
484.433	27.17
484.89	31.77
485.347	27.49
485.804	29.72
486.261	28.92
486.718	30.27
487.175	28.73
487.632	30.44
488.089	33.15
488.546	31.78
489.003	29.84
489.46	29.86
489.917	31.28
490.373	29.75
490.83	29.89
491.287	31.38
491.744	30.83
492.2	29.76
492.657	31.35
493.114	32.9
493.57	30.92
494.027	33.12
494.484	32.03
494.94	31.18
495.397	34.11
495.853	33.06
496.31	30.43
496.766	31.97
497.222	30.96
497.679	32.51
498.135	34.12
498.591	34.78
499.048	33.93
499.504	34.09
499.96	35.43
500.416	34.79
500.872	37.06
501.329	31.4
501.785	35.1
502.241	32.78
502.697	35.56
503.153	34.65
503.609	32.66
504.065	34.31
504.521	35
504.977	34.57
505.432	34.55
505.888	35.41
506.344	33.53
506.8	33.86
507.256	34.99
507.711	34.72
508.167	34.46
508.623	33.83
509.078	34.39
509.534	36.19
509.99	35.6
510.445	33.41
510.901	34.85
511.356	33.95
511.812	35.28
512.267	33.98
512.722	33.05
513.178	33.23
513.633	34.71
514.089	36.49
514.544	36.82
514.999	35.37
515.454	33.76
515.91	35.15
516.365	35.02
516.82	35.2
517.275	35.11
517.73	36.46
518.185	34.24
518.64	35.87
519.095	36.26
519.55	34.97
520.005	35.46
520.46	34.3
520.915	34.15
521.37	34.79
521.825	37.96
522.28	34.88
522.734	33.57
523.189	36.98
523.644	34.12
524.099	35.94
524.553	35.29
525.008	34.81
525.462	36.91
525.917	34.48
526.372	35.47
526.826	35.59
527.281	33.68
527.735	34.14
528.19	37.31
528.644	35.52
529.098	35.53
529.553	36.02
530.007	34.87
530.461	37.14
530.916	35.22
531.37	34.89
531.824	34.62
532.278	37.07
532.732	36.26
533.186	37.13
533.641	36.31
534.095	33.74
534.549	36.73
535.003	37.02
535.457	36.09
535.911	35.63
536.365	36.82
536.818	35.92
537.272	35.92
537.726	36.39
538.18	33.91
538.634	34.92
539.087	35.4
539.541	39.14
539.995	35.46
540.449	37.44
540.902	37.79
541.356	34.34
541.809	37.21
542.263	33.53
542.716	38.14
543.17	35.77
543.623	37.4
544.077	36.3
544.53	35.7
544.984	38.07
545.437	36.65
545.89	38.44
546.344	36.41
546.797	40.05
547.25	39.27
547.703	38.2
548.157	38.95
548.61	36.9
549.063	38.33
549.516	40.52
549.969	38.57
550.422	38.01
550.875	39.11
551.328	37
551.781	37.5
552.234	37.94
552.687	38.34
553.14	40.3
553.592	39.86
554.045	41.04
554.498	41.78
554.951	43.22
555.404	37.49
555.856	41.39
556.309	39.87
556.762	39.66
557.214	43.35
557.667	40.64
558.119	42.33
558.572	41.28
559.024	41.3
559.477	40.88
559.929	40.56
560.382	42.34
560.834	40.15
561.286	42.11
561.739	40
562.191	42.63
562.643	41.37
563.095	41.89
563.548	40.49
564	42.28
564.452	41.07
564.904	43.42
565.356	41.18
565.808	42.03
566.26	41.07
566.712	43.48
567.164	39.79
567.616	41.64
568.068	43.37
568.52	40.64
568.972	42.61
569.424	39.83
569.876	40.4
570.327	39.56
570.779	39.48
571.231	38.84
571.682	39.47
572.134	41.48
572.586	39.68
573.037	38.96
573.489	39.48
573.941	37.83
574.392	39.07
574.844	38.28
575.295	40.02
575.746	39.74
576.198	38.45
576.649	40.11
577.101	39.2
577.552	39.2
578.003	39.75
578.454	40.61
578.906	40.05
579.357	40.15
579.808	42.02
580.259	41.12
580.71	38.64
581.161	40.29
581.612	43.33
582.064	40.09
582.515	39.42
582.965	41.65
583.416	41.63
583.867	43.88
584.318	41.89
584.769	41.52
585.22	41.35
585.671	42.07
586.122	43.48
586.572	43.87
587.023	42.89
587.474	45.98
587.924	43.58
588.375	45.55
588.826	45.36
589.276	44.96
589.727	46.12
590.177	44.94
590.628	45.2
591.078	45.14
591.529	44.27
591.979	45.95
592.429	45.23
592.88	46.32
593.33	45.26
593.78	47.72
594.231	48.56
594.681	46.99
595.131	44.9
595.581	46.72
596.031	46.06
596.481	46.23
596.932	46.65
597.382	45.39
597.832	49.45
598.282	47.41
598.732	48.06
599.182	45.48
599.632	45.72
600.081	46.99
600.531	45.48
600.981	47.16
601.431	48.07
601.881	45.89
602.33	45.69
602.78	45.24
603.23	48.32
603.679	44.89
604.129	46.96
604.579	48.24
605.028	46.6
605.478	47
605.927	48.49
606.377	46.89
606.826	46.53
607.276	47.74
607.725	47.23
608.175	47.4
608.624	48.06
609.073	46.73
609.522	46.29
609.972	47.65
610.421	47.2
610.87	49.4
611.319	46.87
611.768	47.32
612.218	47.01
612.667	48.63
613.116	45.72
613.565	48.17
614.014	46.71
614.463	47.62
614.912	47.88
615.361	47.64
615.81	47.29
616.258	47.79
616.707	48.44
617.156	48.72
617.605	47.22
618.054	46.96
618.502	47.33
618.951	47.35
619.4	47.85
619.848	47.8
620.297	46.87
620.745	46.78
621.194	46.65
621.642	46.73
622.091	46.61
622.539	47.65
622.988	47.71
623.436	46.38
623.885	46.07
624.333	48.56
624.781	46.31
625.23	48.3
625.678	46.28
626.126	46.54
626.574	47.11
627.022	46.61
627.471	46.52
627.919	48.21
628.367	46.81
628.815	46.51
629.263	47.2
629.711	46.25
630.159	47.02
630.607	47.98
631.055	47.72
631.503	47.96
631.95	47.32
632.398	45.56
632.846	46.95
633.294	47.06
633.742	47.74
634.189	46.71
634.637	47.87
635.085	47.32
635.532	47.85
635.98	48.08
636.427	46.47
636.875	48.86
637.323	46.82
637.77	48.78
638.217	46.86
638.665	47.74
639.112	47.17
639.56	47.25
640.007	46.54
640.454	49.6
640.902	48.55
641.349	48.65
641.796	49.39
642.243	47.79
642.69	45.63
643.138	46.98
643.585	45.91
644.032	48.1
644.479	47.91
644.926	46.87
645.373	48.1
645.82	47.53
646.267	48.82
646.714	48.4
647.161	48.46
647.607	47.58
648.054	47.88
648.501	47.74
648.948	47.57
649.395	47.28
649.841	46.44
650.288	47.55
650.735	48.26
651.181	46.48
651.628	47.71
652.075	48.86
652.521	47.92
652.968	48.17
653.414	47.26
653.861	49.33
654.307	48.37
654.753	47.19
655.2	48.99
655.646	47.94
656.092	48.2
656.539	46.71
656.985	47.41
657.431	48.15
657.877	47.75
658.324	48.88
658.77	48.63
659.216	48.51
659.662	48.98
660.108	48.8
660.554	47.58
661	47.33
661.446	48.09
661.892	49.06
662.338	47.23
662.784	48.92
663.23	47.42
663.675	46.91
664.121	48.62
664.567	47.82
665.013	46.93
665.458	48.55
665.904	49.27
666.35	49.91
666.795	46.5
667.241	48.08
667.687	47.25
668.132	47.33
668.578	47.7
669.023	47.46
669.469	47.82
669.914	49.29
670.359	48.54
670.805	48.05
671.25	48.41
671.695	47.63
672.141	48.14
672.586	48.03
673.031	48.31
673.476	46.78
673.922	47.37
674.367	46.94
674.812	46.51
675.257	48.92
675.702	47.91
676.147	47.73
676.592	46.52
677.037	48.26
677.482	47.24
677.927	48
678.372	48.85
678.817	47.89
679.261	48.35
679.706	47.94
680.151	47.29
680.596	48.66
681.04	48.17
681.485	48.45
681.93	48.66
682.374	47.84
682.819	49.2
683.264	47.74
683.708	47.73
684.153	48.64
684.597	48.11
685.042	48.3
685.486	47.42
685.93	46.38
686.375	48.5
686.819	47.82
687.263	46.91
687.708	47.76
688.152	47.73
688.596	47.7
689.04	48.37
689.485	48.98
689.929	48.79
690.373	49.02
690.817	47.72
691.261	47.98
691.705	47.21
692.149	46.75
692.593	48
693.037	46.91
693.481	47.09
693.925	47.05
694.369	47.86
694.812	47.35
695.256	48.22
695.7	47.35
696.144	47.61
696.587	46.98
697.031	48.78
697.475	47.03
697.918	46.72
698.362	46.49
698.806	46.84
699.249	47.85
699.693	48.94
700.136	47.48
700.58	47.96
701.023	47.53
701.466	47.31
701.91	46.56
702.353	48.22
702.796	47.52
703.24	47.23
703.683	47.09
704.126	48.21
704.569	47.73
705.013	47.16
705.456	48.05
705.899	47.7
706.342	47.58
706.785	46.62
707.228	48.42
707.671	45.75
708.114	47.28
708.557	46.8
709	46.91
709.443	47.86
709.886	47.7
710.328	47.75
710.771	46.62
711.214	47.76
711.657	46.95
712.099	47.18
712.542	46.68
712.985	47.9
713.427	47.13
713.87	47.09
714.313	48.53
714.755	47.33
715.198	46.56
715.64	45.64
716.083	47.05
716.525	46.91
716.967	46.59
717.41	46.83
717.852	47.21
718.295	46.88
718.737	48.12
719.179	47.63
719.621	46.95
720.063	47.34
720.506	46.56
720.948	47.59
721.39	46.12
721.832	45.67
722.274	45.78
722.716	46.78
723.158	46.78
723.6	48.07
724.042	47.42
724.484	47.34
724.926	46.55
725.368	47.25
725.81	46.01
726.251	46.76
726.693	47.93
727.135	46.74
727.577	46.32
728.018	46.83
728.46	46.15
728.902	47.35
729.343	47.27
729.785	47.87
730.226	46.68
730.668	45.93
731.109	46.56
731.551	45.37
731.992	45.16
732.434	46.82
732.875	46.8
733.316	45.86
733.758	46.58
734.199	46.18
734.64	47.05
735.081	45.75
735.523	46.51
735.964	47.04
736.405	46.44
736.846	46.9
737.287	46.46
737.728	45.57
738.169	46.18
738.61	46.68
739.051	47.13
739.492	46.11
739.933	45.96
740.374	46.08
740.815	47.24
741.256	45.98
741.696	46.51
742.137	46.75
742.578	46.15
743.019	45.81
743.459	45.26
743.9	47.16
744.341	44.98
744.781	46.87
745.222	46.49
745.662	46.52
746.103	45.69
746.543	46.78
746.984	47.76
747.424	46.7
747.865	46.79
748.305	44.78
748.745	46.59
749.186	46.49
749.626	46.66
750.066	45.34
750.506	45.54
750.947	46.59
751.387	46.12
751.827	46.36
752.267	45.64
752.707	46.51
753.147	46.17
753.587	45.24
754.027	46.87
754.467	45.72
754.907	45.22
755.347	45.82
755.787	45.81
756.227	46.92
756.667	45.32
757.107	45.84
757.546	45.39
757.986	45.37
758.426	46.73
758.865	45.91
759.305	44.82
759.745	45.91
760.184	45.18
760.624	45.37
761.063	45.52
761.503	44.67
761.943	45.81
762.382	45.94
762.821	45.11
763.261	44.94
763.7	45
764.14	45.69
764.579	44.95
765.018	45.54
765.457	45.93
765.897	44.9
766.336	46.27
766.775	45.01
767.214	45.09
767.653	44.8
768.092	46.45
768.531	44.75
768.97	45.68
769.409	46.57
769.848	45.59
770.287	46.85
770.726	46.1
771.165	45.61
771.604	45.58
772.043	45.84
772.482	44.2
772.92	46.49
773.359	46.2
773.798	44.54
774.237	44.93
774.675	45.26
775.114	45.56
775.553	44.99
775.991	45.3
776.43	44.44
776.868	45.71
777.307	45.76
777.745	45.03
778.184	44.63
778.622	45.63
779.06	44.36
779.499	46.02
779.937	44.96
780.375	45.11
780.814	46.07
781.252	45.14
781.69	45.17
782.128	44.31
782.566	45.57
783.004	45.99
783.443	45.18
783.881	45.03
784.319	45.5
784.757	44.26
785.195	44.91
785.633	45.46
786.071	44.9
786.508	45.07
786.946	45.34
787.384	46.01
787.822	44.87
788.26	45.28
788.697	45.47
789.135	44.69
789.573	45.35
790.011	44.55
790.448	44.95
790.886	44.52
791.323	45.15
791.761	45.89
792.198	44.7
792.636	46.6
793.073	44.97
793.511	44.03
793.948	45.34
794.386	44.19
794.823	45.34
795.26	44.85
795.698	45.41
796.135	45.51
796.572	44.46
797.009	44.59
797.446	44.32
797.884	44.72
798.321	43.93
798.758	44
799.195	44.42
799.632	44.82
800.069	44.47
800.506	45.19
800.943	45.94
801.38	45.2
801.817	44.32
802.254	44.29
802.69	45.14
803.127	44.97
803.564	45.47
804.001	44.64
804.438	44.52
804.874	45.47
805.311	43.86
