Data from JCR0032_White1_Reflection_00002.txt Node
Date: Fri Jul 31 14:47:52 ACST 2020
User: Stacey Dix
Spectrometer: MAYP113282
Scans to average: 1
Trigger mode: 0
Integration Time (sec): 1.000000E-1
Electric dark correction enabled: true
Boxcar width: 0
XAxis mode: Wavelengths
Number of Pixels in Spectrum: 2068
>>>>>Begin Spectral Data<<<<<
198.791	0
199.266	61.11
199.74	66.67
200.215	233.33
200.69	72.33
201.164	13.84
201.639	1.78
202.114	28.46
202.588	21.14
203.063	31.84
203.537	26.75
204.012	25.78
204.486	25.35
204.961	4.5
205.435	21.73
205.909	18.77
206.384	21.81
206.858	20.18
207.332	-7.58
207.807	23.81
208.281	35.88
208.755	18.3
209.229	34.05
209.703	-0.61
210.177	12.28
210.651	10.76
211.126	27.65
211.6	10.17
212.074	33.77
212.548	17.49
213.021	25.81
213.495	16.45
213.969	19.05
214.443	14.06
214.917	17.11
215.391	5.43
215.864	7.21
216.338	3.89
216.812	17.81
217.286	14.24
217.759	24.92
218.233	9.71
218.706	5.79
219.18	3.69
219.654	17.73
220.127	10.38
220.6	5.07
221.074	10.47
221.547	2.34
222.021	7.22
222.494	13.72
222.967	6.67
223.441	2.42
223.914	14.34
224.387	9.56
224.86	9.02
225.334	2.8
225.807	7.35
226.28	7.88
226.753	5.18
227.226	4.44
227.699	8.62
228.172	7.34
228.645	4.69
229.118	4.82
229.591	2.92
230.064	6.31
230.537	5.71
231.01	4.07
231.482	3.53
231.955	4.53
232.428	7.2
232.901	3.83
233.373	4.88
233.846	5
234.319	6.21
234.791	3.4
235.264	3.92
235.736	4.82
236.209	6.09
236.681	3.8
237.154	5.18
237.626	5.23
238.099	4.36
238.571	3.54
239.044	4.9
239.516	4.29
239.988	4.2
240.46	5.67
240.933	4.16
241.405	4.51
241.877	4.97
242.349	4.27
242.821	4.75
243.293	5.77
243.765	3.88
244.237	3.95
244.71	3.86
245.181	3.48
245.653	5.09
246.125	3.98
246.597	4.21
247.069	4.76
247.541	4.15
248.013	4.59
248.485	4.44
248.956	4.49
249.428	4.14
249.9	3.21
250.371	4.5
250.843	4.05
251.315	4.45
251.786	3.73
252.258	4.27
252.729	3.53
253.201	3.58
253.672	3.83
254.144	3.81
254.615	3.84
255.086	3.02
255.558	4.58
256.029	3.61
256.5	3.57
256.972	3.11
257.443	3.86
257.914	3.19
258.385	3.94
258.856	3.26
259.327	3.38
259.799	4.09
260.27	3.3
260.741	3.24
261.212	3.39
261.683	3.63
262.154	3.7
262.624	3.26
263.095	3.55
263.566	2.82
264.037	3.99
264.508	3.29
264.979	3.44
265.449	3.03
265.92	3.76
266.391	2.93
266.861	3.1
267.332	3.28
267.803	3.27
268.273	3.27
268.744	3.4
269.214	2.94
269.685	3.37
270.155	3.41
270.626	3.06
271.096	2.75
271.566	3.04
272.037	2.33
272.507	3.27
272.977	4.16
273.448	3.42
273.918	2.87
274.388	2.61
274.858	3.64
275.328	3.23
275.798	2.88
276.268	2.95
276.738	3.5
277.208	3.17
277.678	3.71
278.148	3.06
278.618	3.02
279.088	2.94
279.558	3.03
280.028	3.3
280.498	3.05
280.968	2.95
281.437	3.83
281.907	2.91
282.377	2.77
282.847	3.45
283.316	2.16
283.786	3.6
284.255	2.2
284.725	2.85
285.194	2.71
285.664	3.42
286.133	2.56
286.603	2.92
287.072	3.04
287.542	2.91
288.011	3
288.48	2.56
288.95	2.78
289.419	2.93
289.888	2.47
290.357	3.02
290.827	2.59
291.296	2.88
291.765	3.23
292.234	3.22
292.703	2.88
293.172	2.95
293.641	2.39
294.11	2.57
294.579	2.98
295.048	2.7
295.517	2.81
295.986	2.24
296.455	3.5
296.923	3.54
297.392	3.37
297.861	3.59
298.33	3.36
298.798	2.94
299.267	2.57
299.736	2.64
300.204	3.47
300.673	2.82
301.141	3.01
301.61	3.28
302.079	2.8
302.547	3.21
303.015	3.15
303.484	2.22
303.952	3.15
304.421	3.27
304.889	3.06
305.357	2.62
305.825	3.68
306.294	2.9
306.762	2.93
307.23	2.88
307.698	2.61
308.166	2.97
308.634	3.37
309.103	2.58
309.571	3.14
310.039	3.4
310.507	2.89
310.975	3.22
311.442	3.22
311.91	2.9
312.378	3.16
312.846	2.42
313.314	2.65
313.782	3.82
314.249	3.46
314.717	2.83
315.185	2.97
315.652	3.42
316.12	3.32
316.588	3.66
317.055	3.35
317.523	3.11
317.99	3.27
318.458	2.62
318.925	2.94
319.393	4.03
319.86	3.2
320.328	3.19
320.795	3.97
321.262	4.61
321.73	5.12
322.197	4.09
322.664	4.94
323.131	6.11
323.598	6.05
324.066	5.77
324.533	6.29
325	6.67
325.467	7.46
325.934	7.89
326.401	8.98
326.868	9.95
327.335	9.95
327.802	11.38
328.269	11.63
328.735	12.75
329.202	13.06
329.669	13.3
330.136	15.21
330.603	14.6
331.069	16.04
331.536	15.63
332.003	17.14
332.469	17.29
332.936	18.27
333.402	18.33
333.869	17.96
334.336	18.66
334.802	18.61
335.268	19.41
335.735	19.2
336.201	18.83
336.668	19.41
337.134	18.98
337.6	18.41
338.067	19.2
338.533	20.94
338.999	19.44
339.465	18.56
339.931	19
340.398	19.05
340.864	19.05
341.33	19.6
341.796	19.35
342.262	19.25
342.728	19.2
343.194	20.37
343.66	19.6
344.126	19
344.592	19.76
345.057	18.58
345.523	19.18
345.989	18.83
346.455	18.91
346.921	19.88
347.386	18.79
347.852	20.04
348.318	20.41
348.783	19.21
349.249	19.5
349.714	18.19
350.18	19.28
350.645	19.41
351.111	19.41
351.576	18.67
352.042	18.39
352.507	18.5
352.973	19.11
353.438	17.96
353.903	19.54
354.369	19.36
354.834	19.76
355.299	17.86
355.764	19.27
356.229	18.81
356.695	18.64
357.16	18.55
357.625	18.99
358.09	19.31
358.555	18.11
359.02	19.85
359.485	19.26
359.95	17.87
360.415	17.6
360.879	18.68
361.344	17.8
361.809	19.62
362.274	19.11
362.739	17.88
363.203	18.49
363.668	18.86
364.133	17.98
364.597	16.97
365.062	18.78
365.527	18.97
365.991	20.01
366.456	18.7
366.92	18.55
367.385	19.53
367.849	18.49
368.314	20.12
368.778	18.85
369.242	18.24
369.707	18.51
370.171	18.69
370.635	18.42
371.1	20.16
371.564	18.86
372.028	18.91
372.492	19.09
372.956	18.49
373.42	18.57
373.884	19.29
374.348	18.87
374.812	19.51
375.276	20
375.74	18.77
376.204	20.22
376.668	18.78
377.132	19.4
377.596	19.75
378.06	18.79
378.524	19.42
378.987	21.63
379.451	20.02
379.915	19.85
380.378	20.02
380.842	19.98
381.306	20.71
381.769	20.51
382.233	20.74
382.696	20.88
383.16	21.31
383.623	20
384.087	20.11
384.55	20.54
385.014	20.77
385.477	19.93
385.94	19.45
386.404	20.85
386.867	20.13
387.33	20.65
387.793	21.81
388.256	21.21
388.72	20.68
389.183	21.68
389.646	20.68
390.109	21.79
390.572	21.19
391.035	21.28
391.498	21.51
391.961	20.85
392.424	20.31
392.887	20.29
393.35	21.2
393.812	20.67
394.275	20.98
394.738	22.9
395.201	20.93
395.664	22.57
396.126	21.34
396.589	21.52
397.052	22.31
397.514	21.05
397.977	20.05
398.439	22.19
398.902	21.05
399.364	20.03
399.827	22.07
400.289	21.97
400.752	20.82
401.214	21.79
401.676	21.89
402.139	21.76
402.601	21.55
403.063	21.8
403.525	22.84
403.988	22.31
404.45	20.95
404.912	22.18
405.374	21.7
405.836	20.38
406.298	21.08
406.76	21.15
407.222	20.59
407.684	22.09
408.146	20.1
408.608	20.98
409.07	21.41
409.532	21.51
409.994	21.39
410.456	22.28
410.917	20.81
411.379	21.96
411.841	20.66
412.303	20.96
412.764	20.81
413.226	21.46
413.687	20.81
414.149	21.55
414.611	21.53
415.072	20.65
415.534	21.26
415.995	21.12
416.457	21.67
416.918	22.52
417.379	20.88
417.841	21.25
418.302	21.51
418.763	21.17
419.225	21.44
419.686	23.36
420.147	21.53
420.608	21.79
421.069	22.6
421.53	21.92
421.991	21.63
422.453	22.42
422.914	22.52
423.375	20.18
423.836	21.83
424.297	23.04
424.757	21.78
425.218	22.87
425.679	21.08
426.14	21.67
426.601	20.56
427.062	21.19
427.522	22.32
427.983	21.99
428.444	19.89
428.904	24.5
429.365	20.38
429.826	22.16
430.286	22.39
430.747	22.56
431.207	22.74
431.668	23.55
432.128	22.64
432.589	24.68
433.049	22.28
433.509	19.85
433.97	24.41
434.43	23.68
434.89	21.65
435.351	22.45
435.811	21.49
436.271	21.47
436.731	21
437.191	20.66
437.651	22.27
438.112	21.81
438.572	20.8
439.032	22.85
439.492	22.74
439.952	22.2
440.412	20.86
440.871	23.65
441.331	23.18
441.791	22.16
442.251	22.53
442.711	22.48
443.171	22.25
443.63	21.77
444.09	22.25
444.55	21.14
445.009	24.74
445.469	20.9
445.929	23.24
446.388	23.14
446.848	22.65
447.307	20.04
447.767	20.76
448.226	22.41
448.686	21.52
449.145	22.99
449.604	21.02
450.064	21.75
450.523	22.11
450.982	23.28
451.442	22.03
451.901	22.3
452.36	20.92
452.819	22.32
453.278	21.14
453.737	21.85
454.197	21.69
454.656	20.95
455.115	22.12
455.574	20.88
456.033	23.02
456.492	22.37
456.95	21.45
457.409	21.67
457.868	22.87
458.327	20.96
458.786	22.53
459.245	21.3
459.703	21.8
460.162	20.18
460.621	20.7
461.079	20.45
461.538	21.46
461.997	21.69
462.455	22.22
462.914	23.12
463.372	19.68
463.831	22.76
464.289	21.24
464.748	22.36
465.206	21.93
465.664	21.2
466.123	21.83
466.581	19.52
467.039	22.5
467.497	21.09
467.956	21.06
468.414	21.92
468.872	21.72
469.33	22.48
469.788	20.25
470.246	21.45
470.704	20.28
471.162	22.74
471.62	21.92
472.078	20.68
472.536	21.12
472.994	21.38
473.452	21.23
473.91	20.6
474.368	19.18
474.826	20.48
475.283	20.79
475.741	21.46
476.199	22.4
476.656	20.95
477.114	20.83
477.572	21.78
478.029	20.07
478.487	20.61
478.944	20.02
479.402	20.1
479.859	21.39
480.317	21.79
480.774	18.32
481.232	22.32
481.689	21.8
482.146	21.61
482.604	20.73
483.061	20.5
483.518	20.37
483.975	22.24
484.433	19.31
484.89	22.41
485.347	19.78
485.804	20.69
486.261	21.41
486.718	19.07
487.175	21.72
487.632	21.43
488.089	21.39
488.546	19.49
489.003	22.59
489.46	19.23
489.917	21.66
490.373	19.9
490.83	19.3
491.287	20.65
491.744	19.81
492.2	22.12
492.657	20.56
493.114	19.4
493.57	21.15
494.027	20.33
494.484	22.28
494.94	19.8
495.397	20.34
495.853	20.96
496.31	19.9
496.766	23.26
497.222	20.31
497.679	22.38
498.135	18.51
498.591	21.27
499.048	17.84
499.504	20.51
499.96	21.52
500.416	21.48
500.872	20.06
501.329	21.31
501.785	21.13
502.241	20.6
502.697	22.2
503.153	19.97
503.609	20.68
504.065	19.32
504.521	20.6
504.977	21.5
505.432	20.05
505.888	20.15
506.344	20.73
506.8	19
507.256	18.95
507.711	22.05
508.167	20.1
508.623	20.54
509.078	20.33
509.534	19.58
509.99	20.85
510.445	21.35
510.901	21.1
511.356	22.25
511.812	19.47
512.267	20.58
512.722	20.38
513.178	20.04
513.633	19.67
514.089	19.72
514.544	22.39
514.999	22.15
515.454	20.51
515.91	19.79
516.365	21.54
516.82	20.44
517.275	21.43
517.73	21.02
518.185	19.68
518.64	20.5
519.095	21.66
519.55	20.01
520.005	21.14
520.46	20.18
520.915	20.68
521.37	21.27
521.825	21.61
522.28	21.36
522.734	21.49
523.189	20.21
523.644	21.09
524.099	21.91
524.553	21.23
525.008	20.83
525.462	22.25
525.917	20.14
526.372	20.18
526.826	20
527.281	22.46
527.735	21.8
528.19	20.05
528.644	22.81
529.098	20.84
529.553	21.56
530.007	22.25
530.461	21.42
530.916	22.78
531.37	21.34
531.824	20.58
532.278	21.11
532.732	20.38
533.186	19.95
533.641	22.12
534.095	21.58
534.549	21.21
535.003	21.21
535.457	21.47
535.911	21.73
536.365	20.61
536.818	21.52
537.272	19.74
537.726	22.24
538.18	20.08
538.634	20.51
539.087	21.56
539.541	20.64
539.995	22.63
540.449	22.04
540.902	20.77
541.356	22.51
541.809	21.79
542.263	22.45
542.716	21.85
543.17	21.31
543.623	21.27
544.077	21.49
544.53	21.24
544.984	21.36
545.437	20.77
545.89	21.64
546.344	21.21
546.797	22.55
547.25	22.8
547.703	19.79
548.157	22.43
548.61	20.47
549.063	21.48
549.516	21.26
549.969	22.11
550.422	21.5
550.875	22.43
551.328	22.14
551.781	23.13
552.234	21.47
552.687	20.61
553.14	22.63
553.592	21.17
554.045	21.28
554.498	23.08
554.951	22.46
555.404	22.03
555.856	22.46
556.309	21.3
556.762	23.39
557.214	22.81
557.667	21.78
558.119	22.48
558.572	23.12
559.024	22.67
559.477	23.6
559.929	22.1
560.382	21.01
560.834	22.46
561.286	23.09
561.739	21.44
562.191	21.68
562.643	22.87
563.095	22.59
563.548	22.65
564	22.71
564.452	21.33
564.904	21.53
565.356	22.68
565.808	21.88
566.26	22.38
566.712	24.4
567.164	22.2
567.616	23.27
568.068	22.33
568.52	21.4
568.972	22.03
569.424	22.55
569.876	22.9
570.327	22.24
570.779	22.65
571.231	22.26
571.682	22.9
572.134	23
572.586	22.5
573.037	21.82
573.489	23.46
573.941	22.91
574.392	23.9
574.844	22.33
575.295	22.09
575.746	22.72
576.198	23.59
576.649	22.75
577.101	24.4
577.552	22.32
578.003	23.83
578.454	22.73
578.906	22.88
579.357	22.98
579.808	23.58
580.259	22.92
580.71	22.84
581.161	23.52
581.612	23.31
582.064	22.81
582.515	22.69
582.965	23.52
583.416	22.33
583.867	22.39
584.318	22.88
584.769	21.99
585.22	22.29
585.671	22.84
586.122	22.24
586.572	23.6
587.023	21.54
587.474	21.6
587.924	21.84
588.375	22.99
588.826	22.97
589.276	23.4
589.727	22.78
590.177	23.11
590.628	22.23
591.078	21.72
591.529	23.48
591.979	22.89
592.429	22.75
592.88	22.45
593.33	22.3
593.78	23.31
594.231	22.28
594.681	23.25
595.131	23.08
595.581	22.45
596.031	23.44
596.481	23.9
596.932	22.38
597.382	23.75
597.832	23.34
598.282	23.62
598.732	23.57
599.182	22.56
599.632	22.54
600.081	23.02
600.531	22.09
600.981	22.89
601.431	22.65
601.881	21.73
602.33	22.94
602.78	22.97
603.23	23.15
603.679	21.98
604.129	22.33
604.579	23.25
605.028	20.94
605.478	22.66
605.927	23.26
606.377	22.75
606.826	22.96
607.276	23.01
607.725	24.11
608.175	24.41
608.624	22.34
609.073	22.44
609.522	22.35
609.972	21.55
610.421	22.66
610.87	23.67
611.319	22.46
611.768	23.3
612.218	22.86
612.667	22.29
613.116	23.44
613.565	23.24
614.014	23.2
614.463	24
614.912	21.83
615.361	22.51
615.81	23.23
616.258	24.39
616.707	23.51
617.156	23.41
617.605	23.31
618.054	22.03
618.502	21.56
618.951	23.53
619.4	22.81
619.848	22.87
620.297	22.12
620.745	22.18
621.194	22.63
621.642	22.52
622.091	22.25
622.539	23.15
622.988	22.28
623.436	21.97
623.885	22.54
624.333	23.15
624.781	22.61
625.23	22.83
625.678	22.86
626.126	23.2
626.574	23.61
627.022	22.39
627.471	23.22
627.919	22.06
628.367	22.52
628.815	22.92
629.263	23.3
629.711	23.2
630.159	22.97
630.607	23.5
631.055	23.14
631.503	22.85
631.95	22.87
632.398	23.6
632.846	23.38
633.294	23.05
633.742	22.97
634.189	22.95
634.637	22.22
635.085	22.37
635.532	22.7
635.98	23.21
636.427	23.51
636.875	22.88
637.323	22.47
637.77	22.63
638.217	23.59
638.665	22.2
639.112	23.24
639.56	23.12
640.007	23.07
640.454	23.65
640.902	22.56
641.349	22.7
641.796	22.96
642.243	22.78
642.69	22.91
643.138	23.84
643.585	23.5
644.032	23.57
644.479	22.82
644.926	21.95
645.373	23.9
645.82	22.81
646.267	23
646.714	23.3
647.161	21.82
647.607	23.46
648.054	23.02
648.501	22.15
648.948	21.93
649.395	22.76
649.841	22.57
650.288	22.64
650.735	22.42
651.181	22.95
651.628	22.93
652.075	22.46
652.521	23.03
652.968	23.45
653.414	22.7
653.861	22.24
654.307	22.01
654.753	22.14
655.2	23.48
655.646	22.68
656.092	23.54
656.539	23.34
656.985	23.01
657.431	22.77
657.877	23.31
658.324	22.93
658.77	22.58
659.216	22.84
659.662	22.3
660.108	22.95
660.554	22.92
661	23.74
661.446	22.65
661.892	23.45
662.338	22.95
662.784	23.9
663.23	22.84
663.675	22.55
664.121	23.48
664.567	22.42
665.013	22.69
665.458	22.23
665.904	22.95
666.35	22.27
666.795	22.57
667.241	22.88
667.687	22.77
668.132	22.14
668.578	23.58
669.023	23.2
669.469	23.16
669.914	23.19
670.359	22.38
670.805	23.95
671.25	23.84
671.695	22.94
672.141	22.65
672.586	22.89
673.031	23
673.476	23.29
673.922	23.33
674.367	22.83
674.812	23.98
675.257	23.51
675.702	24.03
676.147	22.76
676.592	22.82
677.037	22.98
677.482	23.21
677.927	23.17
678.372	22.73
678.817	23.18
679.261	23.2
679.706	23.72
680.151	22.82
680.596	23.2
681.04	22.64
681.485	23.31
681.93	23.37
682.374	23.11
682.819	22.72
683.264	22.73
683.708	23.67
684.153	23.94
684.597	22.9
685.042	23.38
685.486	23.03
685.93	22.63
686.375	23.02
686.819	23.11
687.263	23.37
687.708	22.77
688.152	23.88
688.596	23.06
689.04	22.99
689.485	23.33
689.929	23.5
690.373	23.21
690.817	23.59
691.261	22.71
691.705	23.54
692.149	23.26
692.593	23.2
693.037	23.37
693.481	23.05
693.925	22.81
694.369	23.25
694.812	23.23
695.256	23.03
695.7	22.5
696.144	23.05
696.587	22.93
697.031	23.5
697.475	22.95
697.918	23.05
698.362	23.31
698.806	23.42
699.249	23.21
699.693	23.11
700.136	23.73
700.58	23.79
701.023	23.67
701.466	24.21
701.91	23
702.353	23.21
702.796	23.86
703.24	23.22
703.683	23.49
704.126	23.17
704.569	22.92
705.013	23.34
705.456	23.04
705.899	23.06
706.342	22.75
706.785	23.52
707.228	23.91
707.671	23.25
708.114	23.66
708.557	23.58
709	23.18
709.443	23.13
709.886	23.26
710.328	23.45
710.771	23.78
711.214	22.99
711.657	22.94
712.099	23.14
712.542	23.15
712.985	23.73
713.427	23.36
713.87	23.36
714.313	23.74
714.755	23.24
715.198	23.57
715.64	23.46
716.083	23.59
716.525	23.53
716.967	23.26
717.41	23.39
717.852	23.55
718.295	22.63
718.737	24.08
719.179	22.99
719.621	23.35
720.063	22.97
720.506	23.28
720.948	23.17
721.39	23.14
721.832	22.83
722.274	23.38
722.716	23.29
723.158	23.92
723.6	23.43
724.042	23.67
724.484	22.95
724.926	23.17
725.368	23.26
725.81	23.15
726.251	23.51
726.693	23.7
727.135	23.8
727.577	23.13
728.018	24.01
728.46	22.79
728.902	23.88
729.343	23.47
729.785	22.86
730.226	23.64
730.668	23.2
731.109	23.52
731.551	23.44
731.992	23.43
732.434	23.12
732.875	23.03
733.316	23.51
733.758	23.55
734.199	23.35
734.64	23.8
735.081	23.57
735.523	23.02
735.964	22.85
736.405	23.68
736.846	23.4
737.287	23.5
737.728	23.19
738.169	22.8
738.61	23.3
739.051	23.86
739.492	23.37
739.933	24.15
740.374	23.74
740.815	23.8
741.256	23.52
741.696	23.71
742.137	23.43
742.578	23.25
743.019	23.65
743.459	23.65
743.9	23.44
744.341	23.26
744.781	23.62
745.222	23.33
745.662	23.69
746.103	23.57
746.543	24.01
746.984	23.9
747.424	23.07
747.865	23.47
748.305	23.59
748.745	23.1
749.186	24.1
749.626	23.22
750.066	23.54
750.506	23.76
750.947	23.87
751.387	23.14
751.827	23.54
752.267	23.44
752.707	23.76
753.147	23.4
753.587	23.11
754.027	23.59
754.467	23.47
754.907	23.62
755.347	23.48
755.787	23.13
756.227	23.34
756.667	23.89
757.107	22.83
757.546	24.33
757.986	22.73
758.426	23.48
758.865	23.81
759.305	24.06
759.745	23.5
760.184	24.04
760.624	24.24
761.063	23.54
761.503	24.29
761.943	23.8
762.382	23.61
762.821	23.88
763.261	24.49
763.7	23.62
764.14	23.7
764.579	23.79
765.018	24.01
765.457	24.29
765.897	24.38
766.336	23.71
766.775	24.22
767.214	23.93
767.653	23.51
768.092	24.26
768.531	24.03
768.97	23.8
769.409	23.54
769.848	25.06
770.287	23.27
770.726	24.42
771.165	23.62
771.604	23.79
772.043	24.05
772.482	24.03
772.92	24.19
773.359	23.84
773.798	24.42
774.237	23.89
774.675	24.01
775.114	23.28
775.553	24.41
775.991	23.67
776.43	24.42
776.868	24.09
777.307	23.26
777.745	23.97
778.184	24.13
778.622	24.11
779.06	24.43
779.499	23.8
779.937	24.86
780.375	24.19
780.814	24.17
781.252	23.8
781.69	24.05
782.128	24.34
782.566	23.92
783.004	24.77
783.443	24.08
783.881	24.35
784.319	24.29
784.757	24.81
785.195	24.43
785.633	24.77
786.071	24.33
786.508	24.59
786.946	24.21
787.384	24.16
787.822	24.09
788.26	24.17
788.697	23.78
789.135	24.26
789.573	24.52
790.011	24.18
790.448	24.55
790.886	23.74
791.323	24.77
791.761	24.52
792.198	23.57
792.636	23.99
793.073	24.39
793.511	24.25
793.948	24.79
794.386	23.78
794.823	24.67
795.26	24.42
795.698	24.54
796.135	24.68
796.572	24.43
797.009	24.03
797.446	24.16
797.884	24.33
798.321	24.92
798.758	24.34
799.195	24.46
799.632	24.63
800.069	24.68
800.506	24.57
800.943	24.66
801.38	24.74
801.817	24.91
802.254	24.69
802.69	23.88
803.127	24.49
803.564	24.8
804.001	24.12
804.438	24.36
804.874	24.43
805.311	24.82
805.748	24.62
806.184	24.5
806.621	24.48
807.057	24.83
807.494	24.75
807.93	24.01
808.367	24.65
808.803	25.18
809.24	24.75
809.676	24.7
810.112	24.54
810.549	24.88
810.985	24.31
811.421	24.8
811.857	24.99
812.294	24.87
812.73	25.38
