Data from JCR0017_Black2_Reflection_00003.txt Node
Date: Thu Jul 23 16:12:50 ACST 2020
User: Stacey Dix
Spectrometer: MAYP113282
Scans to average: 1
Trigger mode: 0
Integration Time (sec): 1.000000E-1
Electric dark correction enabled: true
Boxcar width: 0
XAxis mode: Wavelengths
Number of Pixels in Spectrum: 2068
>>>>>Begin Spectral Data<<<<<
198.791	-41.67
199.266	-283.33
199.74	108.33
200.215	0
200.69	-2.51
201.164	-1.17
201.639	7.88
202.114	-2.53
202.588	-3.05
203.063	21.12
203.537	-2.58
204.012	12.96
204.486	4.21
204.961	2.66
205.435	1.12
205.909	-5.51
206.384	-5.89
206.858	6.7
207.332	-2.23
207.807	-7.42
208.281	24.75
208.755	3.83
209.229	-5.12
209.703	3.38
210.177	-14.69
210.651	-9.67
211.126	4.57
211.6	0.77
212.074	11.6
212.548	4.34
213.021	11.22
213.495	10.76
213.969	1.42
214.443	-6.09
214.917	5.88
215.391	1.13
215.864	-5.72
216.338	3.96
216.812	7.57
217.286	-5.95
217.759	21.41
218.233	6.65
218.706	5.43
219.18	-0.34
219.654	2.62
220.127	4.08
220.6	2.35
221.074	6.26
221.547	7.94
222.021	2.87
222.494	2.97
222.967	6.59
223.441	1.16
223.914	9.02
224.387	3.52
224.86	8.05
225.334	2.89
225.807	8.7
226.28	6
226.753	6.34
227.226	4.22
227.699	5.17
228.172	2.19
228.645	3.5
229.118	6.15
229.591	2.25
230.064	3.65
230.537	3.45
231.01	4.32
231.482	4.04
231.955	4.52
232.428	2.93
232.901	4.3
233.373	5.01
233.846	4.29
234.319	5.49
234.791	3.14
235.264	4.17
235.736	2.73
236.209	3.22
236.681	2.22
237.154	4.12
237.626	3.33
238.099	3.92
238.571	4.43
239.044	3.32
239.516	3.62
239.988	3.41
240.46	5.02
240.933	3.39
241.405	2.69
241.877	3.43
242.349	3.05
242.821	3.09
243.293	3.32
243.765	4.06
244.237	2.96
244.71	3.08
245.181	3.22
245.653	2.56
246.125	2.9
246.597	3.1
247.069	3.5
247.541	3.63
248.013	4.04
248.485	3.31
248.956	4.58
249.428	2.86
249.9	3.62
250.371	4
250.843	3.35
251.315	2.82
251.786	4.06
252.258	2.79
252.729	3.25
253.201	3.59
253.672	2.77
254.144	2.57
254.615	2.63
255.086	2.88
255.558	3.15
256.029	2.48
256.5	3.3
256.972	2.85
257.443	2.75
257.914	3.4
258.385	2.96
258.856	3.44
259.327	2.74
259.799	3.02
260.27	3.11
260.741	2.95
261.212	3.11
261.683	2.48
262.154	3.28
262.624	3
263.095	3.47
263.566	3.33
264.037	2.86
264.508	2.2
264.979	3.18
265.449	2.53
265.92	2.99
266.391	2.92
266.861	2.83
267.332	2.89
267.803	2.88
268.273	3.34
268.744	3.36
269.214	2.73
269.685	2.95
270.155	2.2
270.626	3.08
271.096	3.06
271.566	3.03
272.037	4.28
272.507	3.93
272.977	1.98
273.448	2.25
273.918	3.3
274.388	2.65
274.858	2.82
275.328	2.87
275.798	3.57
276.268	2.95
276.738	2.38
277.208	2.28
277.678	2.61
278.148	2.97
278.618	1.86
279.088	2.31
279.558	3.05
280.028	3.48
280.498	3.36
280.968	2.52
281.437	3
281.907	2.27
282.377	2.33
282.847	2.61
283.316	3
283.786	2.66
284.255	2.72
284.725	2.12
285.194	3.2
285.664	2.48
286.133	2.64
286.603	3.07
287.072	2.51
287.542	3.13
288.011	2.55
288.48	2.02
288.95	3.07
289.419	3.28
289.888	2.57
290.357	2.76
290.827	2.94
291.296	3.04
291.765	2.8
292.234	2.86
292.703	2.18
293.172	2.37
293.641	2.43
294.11	2.48
294.579	2.77
295.048	3.77
295.517	2.54
295.986	2.75
296.455	3.01
296.923	2.41
297.392	2.86
297.861	2.82
298.33	2.17
298.798	2.43
299.267	3.14
299.736	2.51
300.204	1.81
300.673	1.96
301.141	2.29
301.61	2.53
302.079	2.71
302.547	2.65
303.015	2.27
303.484	2.33
303.952	2.91
304.421	1.89
304.889	3.01
305.357	2.59
305.825	2.27
306.294	2.14
306.762	3.07
307.23	2.19
307.698	2.73
308.166	2.1
308.634	2.33
309.103	2.2
309.571	2.65
310.039	2.35
310.507	2.36
310.975	2.13
311.442	2.59
311.91	1.8
312.378	1.73
312.846	2.82
313.314	2.82
313.782	1.88
314.249	2.45
314.717	2.5
315.185	2.9
315.652	2.21
316.12	2.35
316.588	2.79
317.055	2.02
317.523	2.71
317.99	2.22
318.458	2.25
318.925	2.08
319.393	1.81
319.86	2.77
320.328	2.91
320.795	1.62
321.262	2.66
321.73	2.03
322.197	2.4
322.664	1.85
323.131	2.5
323.598	2.57
324.066	2.4
324.533	1.83
325	1.89
325.467	2.44
325.934	1.76
326.401	1.83
326.868	2.27
327.335	2.3
327.802	2.37
328.269	2.15
328.735	2.45
329.202	1.89
329.669	2.18
330.136	2.57
330.603	1.65
331.069	1.94
331.536	2.67
332.003	1.92
332.469	1.85
332.936	2.35
333.402	1.65
333.869	2.63
334.336	1.73
334.802	1.99
335.268	1.94
335.735	2.3
336.201	2.03
336.668	1.89
337.134	1.55
337.6	1.26
338.067	1.75
338.533	1.67
338.999	1.51
339.465	1.37
339.931	2.35
340.398	1.58
340.864	1.62
341.33	1.95
341.796	1.47
342.262	1.7
342.728	1.75
343.194	1.53
343.66	2.6
344.126	1.86
344.592	1.59
345.057	1.86
345.523	1.49
345.989	1.58
346.455	1.81
346.921	2.48
347.386	2.33
347.852	1.65
348.318	1.87
348.783	1.46
349.249	1.37
349.714	1.64
350.18	1.91
350.645	1.79
351.111	2.3
351.576	1.57
352.042	1.81
352.507	1.35
352.973	1.29
353.438	1.98
353.903	1.78
354.369	1.24
354.834	1.8
355.299	2.16
355.764	2.01
356.229	1.76
356.695	2.01
357.16	1.46
357.625	1.43
358.09	1.29
358.555	2.43
359.02	2.36
359.485	1.79
359.95	1.64
360.415	1.28
360.879	1.72
361.344	1.58
361.809	0.92
362.274	1.93
362.739	1.44
363.203	1.72
363.668	1.92
364.133	0.98
364.597	2.15
365.062	1.82
365.527	1.5
365.991	1.6
366.456	1.34
366.92	1.46
367.385	1.23
367.849	1.4
368.314	1.43
368.778	0.96
369.242	1.21
369.707	1.26
370.171	1.56
370.635	1.92
371.1	1.55
371.564	1.31
372.028	2.1
372.492	1.69
372.956	0.93
373.42	1.31
373.884	1.84
374.348	2.06
374.812	0.78
375.276	1.86
375.74	1.05
376.204	1.96
376.668	1.75
377.132	1.47
377.596	1.01
378.06	2.1
378.524	0.51
378.987	1.94
379.451	0.95
379.915	1.2
380.378	1.86
380.842	1.18
381.306	1.5
381.769	1.09
382.233	2
382.696	1.18
383.16	1.27
383.623	2.09
384.087	1.07
384.55	1.75
385.014	1.9
385.477	1.48
385.94	2.14
386.404	1.75
386.867	1.51
387.33	1.87
387.793	1.55
388.256	1.48
388.72	2.06
389.183	1.44
389.646	1.87
390.109	0.91
390.572	1.73
391.035	1.77
391.498	1.74
391.961	1.56
392.424	1.89
392.887	1.66
393.35	1.39
393.812	1.44
394.275	1.88
394.738	1.31
395.201	1.94
395.664	1.12
396.126	1.15
396.589	1.55
397.052	0.74
397.514	1.31
397.977	1.13
398.439	1.77
398.902	1.39
399.364	1.41
399.827	1.98
400.289	1.18
400.752	1.78
401.214	1.55
401.676	1.45
402.139	1.41
402.601	1.53
403.063	1.82
403.525	1.65
403.988	0.94
404.45	1.37
404.912	1.95
405.374	1.2
405.836	1.26
406.298	1.71
406.76	1.37
407.222	1.65
407.684	1.14
408.146	1.36
408.608	1.77
409.07	1.74
409.532	1.02
409.994	1.17
410.456	1.74
410.917	1.61
411.379	2
411.841	1.49
412.303	1.5
412.764	1.04
413.226	1.28
413.687	1.23
414.149	1.27
414.611	1.72
415.072	0.97
415.534	2.13
415.995	0.74
416.457	1.05
416.918	1.53
417.379	1.3
417.841	1.36
418.302	1.72
418.763	1.28
419.225	1.43
419.686	1.17
420.147	1.11
420.608	1.17
421.069	1.08
421.53	1.71
421.991	1.51
422.453	1.66
422.914	1.51
423.375	0.73
423.836	0.97
424.297	1.04
424.757	0.65
425.218	1.69
425.679	1.72
426.14	1.33
426.601	1.56
427.062	1.65
427.522	0.87
427.983	1.38
428.444	1.62
428.904	1.1
429.365	0.49
429.826	1.77
430.286	2.2
430.747	1.91
431.207	1.37
431.668	1.6
432.128	2.78
432.589	1.72
433.049	0.95
433.509	1.39
433.97	1.25
434.43	1.87
434.89	0.6
435.351	1.83
435.811	1.44
436.271	-0.04
436.731	1.88
437.191	1.54
437.651	0.22
438.112	1.44
438.572	0.89
439.032	0.97
439.492	1.32
439.952	1.42
440.412	1.19
440.871	1.62
441.331	1.79
441.791	0.87
442.251	2.23
442.711	1.41
443.171	2.17
443.63	1.42
444.09	0.35
444.55	2.62
445.009	1.9
445.469	2.18
445.929	0.74
446.388	2.05
446.848	1.61
447.307	1.41
447.767	1.38
448.226	0.8
448.686	1.22
449.145	0.91
449.604	1.46
450.064	0.67
450.523	1.31
450.982	1.8
451.442	1.7
451.901	1.62
452.36	2.37
452.819	1.36
453.278	1.55
453.737	2.14
454.197	1.95
454.656	0.96
455.115	0.28
455.574	1.2
456.033	1.38
456.492	1.44
456.95	1.6
457.409	0.88
457.868	2
458.327	1.86
458.786	0.75
459.245	1.04
459.703	0.66
460.162	1.64
460.621	1
461.079	0.9
461.538	2.1
461.997	1.11
462.455	2.02
462.914	0.59
463.372	1.03
463.831	1.56
464.289	1.12
464.748	1.79
465.206	1.63
465.664	1.26
466.123	1.27
466.581	0.55
467.039	1.03
467.497	0.84
467.956	1.03
468.414	1.89
468.872	1.47
469.33	1.74
469.788	2.1
470.246	1.01
470.704	2.41
471.162	1.45
471.62	2.39
472.078	0.76
472.536	1.05
472.994	1.32
473.452	0.75
473.91	1.58
474.368	0.8
474.826	2.29
475.283	0.95
475.741	1.16
476.199	2.06
476.656	1.75
477.114	1.28
477.572	1.69
478.029	0.21
478.487	1.63
478.944	0.84
479.402	1.51
479.859	0.96
480.317	0.98
480.774	1.38
481.232	0.96
481.689	1.18
482.146	2.33
482.604	-0.25
483.061	0.67
483.518	1.17
483.975	3.54
484.433	0.16
484.89	1.31
485.347	1.97
485.804	1.75
486.261	0.11
486.718	1.51
487.175	0.52
487.632	1.16
488.089	1.2
488.546	0.82
489.003	2.22
489.46	2.07
489.917	1.73
490.373	1.95
490.83	1.03
491.287	1.27
491.744	1.53
492.2	1.23
492.657	1.63
493.114	1.09
493.57	1.02
494.027	1.79
494.484	0.32
494.94	0.63
495.397	0.53
495.853	1.49
496.31	1.73
496.766	1.21
497.222	2.37
497.679	1.25
498.135	1.17
498.591	0.69
499.048	0.93
499.504	1.14
499.96	2.16
500.416	2.67
500.872	2.61
501.329	1.55
501.785	1.4
502.241	0.94
502.697	0.92
503.153	1.2
503.609	0.94
504.065	0.34
504.521	1.12
504.977	0.75
505.432	0.48
505.888	1.65
506.344	1.43
506.8	1.92
507.256	1.49
507.711	2.27
508.167	1.25
508.623	1.81
509.078	1.56
509.534	0.64
509.99	1.06
510.445	1.34
510.901	1.28
511.356	2.03
511.812	2.05
512.267	1.06
512.722	1.94
513.178	1.47
513.633	1.47
514.089	1.28
514.544	1.44
514.999	1.89
515.454	0.78
515.91	1.86
516.365	1.59
516.82	1.12
517.275	1.77
517.73	2.29
518.185	0.98
518.64	1.58
519.095	1.62
519.55	1.18
520.005	1.26
520.46	2.32
520.915	0.59
521.37	1.95
521.825	0.22
522.28	1.92
522.734	1.39
523.189	2.46
523.644	1.52
524.099	1.5
524.553	1.14
525.008	1.13
525.462	1.04
525.917	1.51
526.372	1.58
526.826	1.26
527.281	0.78
527.735	1.65
528.19	-0.07
528.644	2.42
529.098	1.75
529.553	1.5
530.007	1.79
530.461	0.74
530.916	1.56
531.37	1.67
531.824	1.44
532.278	1.47
532.732	1.35
533.186	1.98
533.641	1.06
534.095	1.39
534.549	2.41
535.003	1.36
535.457	1.31
535.911	1.3
536.365	1.77
536.818	2.19
537.272	0.71
537.726	1.94
538.18	1.89
538.634	1.9
539.087	2.29
539.541	2.18
539.995	1.39
540.449	2.83
540.902	1.96
541.356	2.18
541.809	1.04
542.263	0.36
542.716	1.45
543.17	1.98
543.623	1.74
544.077	1.77
544.53	1.02
544.984	2.45
545.437	1.24
545.89	1.49
546.344	1.76
546.797	0.6
547.25	1.55
547.703	0.12
548.157	1.9
548.61	0.73
549.063	1.85
549.516	0.37
549.969	1.41
550.422	2.16
550.875	1.89
551.328	1.06
551.781	1.41
552.234	1.01
552.687	0.93
553.14	1.27
553.592	1.1
554.045	1.4
554.498	0.47
554.951	1.76
555.404	1.84
555.856	1.57
556.309	1.29
556.762	1.01
557.214	1.87
557.667	2.06
558.119	1.7
558.572	1.39
559.024	2.02
559.477	1.55
559.929	2.2
560.382	1.6
560.834	1.4
561.286	0.89
561.739	1.44
562.191	1.59
562.643	1.43
563.095	2.11
563.548	0.87
564	1.86
564.452	1.79
564.904	2.03
565.356	1.83
565.808	1.43
566.26	1.76
566.712	1.7
567.164	1.68
567.616	2
568.068	1.94
568.52	1.7
568.972	2.6
569.424	1.67
569.876	2.04
570.327	1.7
570.779	1.95
571.231	2.16
571.682	2.14
572.134	1.81
572.586	2.1
573.037	1.52
573.489	1.89
573.941	1.65
574.392	1.76
574.844	1.65
575.295	1.75
575.746	2.1
576.198	1.63
576.649	1.84
577.101	2.14
577.552	1.3
578.003	1.39
578.454	1.78
578.906	1.87
579.357	1.53
579.808	1.55
580.259	1.69
580.71	1.35
581.161	1.77
581.612	1.98
582.064	1.88
582.515	2.06
582.965	2.49
583.416	1.55
583.867	1.4
584.318	1.89
584.769	2.14
585.22	1.9
585.671	1.76
586.122	1.57
586.572	1.72
587.023	1.88
587.474	1.7
587.924	1.36
588.375	1.35
588.826	1.39
589.276	1.97
589.727	1.8
590.177	1.96
590.628	1.52
591.078	1.65
591.529	1.95
591.979	1.69
592.429	1.89
592.88	1.86
593.33	1.75
593.78	2.08
594.231	1.24
594.681	1.48
595.131	1.84
595.581	2.18
596.031	1.28
596.481	2
596.932	1.68
597.382	1.79
597.832	1.53
598.282	1.6
598.732	2.32
599.182	1.61
599.632	1.35
600.081	1.07
600.531	2.07
600.981	1.6
601.431	2.08
601.881	1.54
602.33	1.22
602.78	2.19
603.23	1.59
603.679	1.81
604.129	2.05
604.579	1.72
605.028	1.7
605.478	1.61
605.927	1.53
606.377	2.08
606.826	1.55
607.276	1.94
607.725	1.92
608.175	1.98
608.624	1.63
609.073	1.65
609.522	1.89
609.972	2.3
610.421	1.75
610.87	1.5
611.319	2.03
611.768	1.67
612.218	1.52
612.667	1.77
613.116	2.19
613.565	2.18
614.014	1.85
614.463	1.66
614.912	1.95
615.361	2.37
615.81	2.1
616.258	2.34
616.707	1.74
617.156	1.88
617.605	1.76
618.054	1.96
618.502	2.5
618.951	1.97
619.4	1.96
619.848	1.83
620.297	1.87
620.745	1.84
621.194	1.99
621.642	1.93
622.091	1.86
622.539	1.78
622.988	1.95
623.436	1.89
623.885	2.08
624.333	2.27
624.781	1.82
625.23	2.29
625.678	1.9
626.126	1.92
626.574	2
627.022	1.85
627.471	1.79
627.919	1.93
628.367	2.31
628.815	1.87
629.263	1.85
629.711	2.29
630.159	2.08
630.607	2.17
631.055	2.25
631.503	2.09
631.95	2.06
632.398	1.55
632.846	2.09
633.294	2.38
633.742	2.12
634.189	1.8
634.637	2.2
635.085	2.01
635.532	1.95
635.98	1.69
636.427	2.11
636.875	2.57
637.323	2.33
637.77	2
638.217	2.17
638.665	2.05
639.112	1.76
639.56	1.94
640.007	2.14
640.454	2.14
640.902	2.08
641.349	1.99
641.796	1.74
642.243	2.04
642.69	2.08
643.138	2.12
643.585	2.07
644.032	2.23
644.479	1.86
644.926	1.84
645.373	2.02
645.82	2.14
646.267	1.77
646.714	2.25
647.161	1.96
647.607	2.52
648.054	2.16
648.501	2.06
648.948	1.93
649.395	2.25
649.841	2.08
650.288	2.01
650.735	2.24
651.181	2.25
651.628	2.22
652.075	2.34
652.521	2.02
652.968	2.13
653.414	2.22
653.861	2.19
654.307	2.06
654.753	2.2
655.2	2.44
655.646	2.1
656.092	2.05
656.539	2.37
656.985	2.1
657.431	2.34
657.877	2.19
658.324	2.44
658.77	2.12
659.216	2.26
659.662	2.57
660.108	2.28
660.554	2.18
661	2.32
661.446	2.31
661.892	2.62
662.338	1.92
662.784	2.56
663.23	2.03
663.675	2.15
664.121	2.36
664.567	2.6
665.013	2.83
665.458	2.42
665.904	2.21
666.35	2.29
666.795	2.34
667.241	2.64
667.687	2.53
668.132	2.46
668.578	2.39
669.023	2.42
669.469	2.11
669.914	2.08
670.359	1.97
670.805	2.23
671.25	2.23
671.695	2.04
672.141	2.15
672.586	2.44
673.031	2.76
673.476	2.37
673.922	2.38
674.367	2.12
674.812	2.26
675.257	2.13
675.702	2.17
676.147	2.21
676.592	2.1
677.037	2.5
677.482	2.46
677.927	2.41
678.372	2.53
678.817	2.42
679.261	2.52
679.706	2.17
680.151	2.67
680.596	2.22
681.04	2.87
681.485	2.26
681.93	2.36
682.374	2.31
682.819	2.36
683.264	2.4
683.708	2.41
684.153	2.7
684.597	2.57
685.042	2.35
685.486	2.38
685.93	2.71
686.375	2.15
686.819	2.39
687.263	2.73
687.708	2.45
688.152	2.51
688.596	2.23
689.04	2.64
689.485	2.5
689.929	2.57
690.373	2.15
690.817	2.32
691.261	2.47
691.705	2.51
692.149	2.27
692.593	2.42
693.037	2.48
693.481	2.25
693.925	2.49
694.369	2.45
694.812	2.19
695.256	2.36
695.7	2.5
696.144	2.37
696.587	2.35
697.031	2.53
697.475	2.58
697.918	2.48
698.362	2.39
698.806	2.38
699.249	2.49
699.693	2.43
700.136	2.29
700.58	2.36
701.023	2.51
701.466	2.47
701.91	2.62
702.353	2.59
702.796	2.35
703.24	2.36
703.683	2.52
704.126	2.81
704.569	2.5
705.013	2.66
705.456	2.38
705.899	2.52
706.342	2.89
706.785	2.47
707.228	2.49
707.671	2.56
708.114	2.59
708.557	2.42
709	2.63
709.443	2.35
709.886	2.71
710.328	2.72
710.771	2.39
711.214	2.92
711.657	2.78
712.099	2.56
712.542	2.67
712.985	2.42
713.427	2.4
713.87	2.73
714.313	2.73
714.755	2.83
715.198	2.65
715.64	3.06
716.083	2.71
716.525	2.84
716.967	2.72
717.41	2.81
717.852	2.5
718.295	2.67
718.737	2.64
719.179	2.68
719.621	2.82
720.063	2.62
720.506	2.74
720.948	2.82
721.39	2.43
721.832	2.81
722.274	2.69
722.716	2.55
723.158	2.91
723.6	2.84
724.042	2.84
724.484	2.73
724.926	2.94
725.368	2.54
725.81	2.85
726.251	2.68
726.693	2.51
727.135	2.58
727.577	2.87
728.018	2.57
728.46	2.67
728.902	2.85
729.343	2.71
729.785	2.82
730.226	2.72
730.668	2.56
731.109	2.74
731.551	2.77
731.992	2.9
732.434	2.77
732.875	2.68
733.316	2.79
733.758	2.65
734.199	2.73
734.64	2.95
735.081	2.85
735.523	2.62
735.964	2.75
736.405	2.82
736.846	2.79
737.287	2.88
737.728	2.65
738.169	3.24
738.61	2.76
739.051	2.81
739.492	2.9
739.933	3.1
740.374	2.89
740.815	2.98
741.256	2.78
741.696	2.92
742.137	2.99
742.578	2.93
743.019	3.06
743.459	2.79
743.9	2.92
744.341	3.02
744.781	2.88
745.222	2.85
745.662	3.02
746.103	2.76
746.543	2.53
746.984	2.92
747.424	2.97
747.865	3.27
748.305	2.87
748.745	2.97
749.186	2.82
749.626	2.99
750.066	2.86
750.506	3.13
750.947	2.81
751.387	3.11
751.827	3.1
752.267	3.04
752.707	3.09
753.147	3.15
753.587	3.36
754.027	2.76
754.467	2.84
754.907	3.02
755.347	2.87
755.787	3.03
756.227	3.5
756.667	3.16
757.107	3.16
757.546	3.28
757.986	2.92
758.426	3.12
758.865	3.1
759.305	3.15
759.745	3.29
760.184	3.18
760.624	2.83
761.063	3.2
761.503	3.07
761.943	2.92
762.382	2.93
762.821	3.07
763.261	3.13
763.7	3.31
764.14	3.1
764.579	3.23
765.018	3.12
765.457	3
765.897	3.07
766.336	2.95
766.775	3.3
767.214	3.26
767.653	3.02
768.092	3.15
768.531	3.32
768.97	3.05
769.409	3.19
769.848	3.43
770.287	3.28
770.726	3.38
771.165	3.39
771.604	3.34
772.043	3.15
772.482	3.27
772.92	3.11
773.359	2.96
773.798	3.51
774.237	3.19
774.675	3.42
775.114	3.24
775.553	3.41
775.991	3.1
776.43	3.38
776.868	3.25
777.307	3.7
777.745	3.23
778.184	3.66
778.622	3.29
779.06	3.36
779.499	3.32
779.937	3.36
780.375	3.22
780.814	3.38
781.252	3.34
781.69	3.55
782.128	3.26
782.566	3.44
783.004	3.35
783.443	3.53
783.881	3.34
784.319	3.3
784.757	3.53
785.195	3.53
785.633	3.45
786.071	3.37
786.508	3.37
786.946	3.56
787.384	3.45
787.822	3.3
788.26	3.37
788.697	3.46
789.135	3.49
789.573	3.45
790.011	3.27
790.448	3.41
790.886	3.35
791.323	3.51
791.761	3.38
792.198	3.59
792.636	3.59
793.073	3.61
793.511	3.58
793.948	3.57
794.386	3.87
794.823	3.63
795.26	3.35
795.698	3.66
796.135	3.57
796.572	3.53
797.009	3.75
797.446	3.78
797.884	3.52
798.321	3.55
798.758	3.6
799.195	3.61
799.632	3.71
800.069	3.61
800.506	3.52
800.943	3.85
801.38	3.41
801.817	3.79
802.254	3.58
802.69	3.71
803.127	3.65
803.564	3.8
804.001	3.54
804.438	3.76
804.874	3.87
805.311	3.71
805.748	3.77
806.184	3.86
806.621	3.65
807.057	3.8
807.494	3.93
807.93	3.67
808.367	3.69
808.803	3.95
809.24	3.99
809.676	3.99
810.112	3.57
810.549	3.77
810.985	3.87
811.421	3.79
811.857	3.9
812.294	3.82
812.73	4.24
813.166	3.91
813.602	4.03
814.038	3.7
814.474	4.08
814.91	3.88
815.346	3.98
815.782	3.91
816.218	3.85
816.654	3.93
817.09	4.04
817.526	4
817.962	3.81
818.398	4.03
818.833	3.97
819.269	4.01
819.705	3.77
820.141	3.98
820.576	3.94
821.012	4.22
821.447	3.77
821.883	3.87
822.319	4.06
822.754	4.03
823.19	4.04
823.625	3.97
824.061	4.13
824.496	4.11
824.931	4.21
825.367	3.96
825.802	4.09
826.237	4.13
826.673	4.01
827.108	4.15
827.543	4.35
827.978	4
828.413	4.14
828.849	3.88
829.284	4.33
829.719	4.09
830.154	4.06
830.589	4.37
831.024	4.24
831.459	4.25
831.894	4.16
832.329	4.24
832.763	3.99
833.198	3.97
833.633	4.21
834.068	4.22
834.503	4.21
834.937	4.23
835.372	4.3
835.807	4.16
836.241	4.47
836.676	4.15
837.111	4.24
837.545	4.43
837.98	4.29
838.414	4.44
838.849	4.31
839.283	4.36
839.717	4.55
840.152	4.3
840.586	4.43
841.021	4.24
841.455	4.26
841.889	4.21
842.323	4.47
842.758	4.51
843.192	4.36
843.626	4.49
844.06	4.65
844.494	4.2
844.928	4.5
845.362	4.41
845.796	4.44
846.23	4.63
