Data from JCR0025_YellowVentral_Reflection_00003.txt Node
Date: Fri Jul 31 12:00:25 ACST 2020
User: Stacey Dix
Spectrometer: MAYP113282
Scans to average: 1
Trigger mode: 0
Integration Time (sec): 1.000000E-1
Electric dark correction enabled: true
Boxcar width: 0
XAxis mode: Wavelengths
Number of Pixels in Spectrum: 2068
>>>>>Begin Spectral Data<<<<<
198.791	104.55
199.266	181.25
199.74	95
200.215	-25
200.69	46.95
201.164	43.85
201.639	59.05
202.114	54.1
202.588	46.8
203.063	45.22
203.537	53.77
204.012	64.35
204.486	21.06
204.961	65.18
205.435	41.39
205.909	34.26
206.384	51
206.858	28.49
207.332	50.43
207.807	39.64
208.281	36.32
208.755	39.47
209.229	42.97
209.703	51.07
210.177	56.8
210.651	43.41
211.126	41.02
211.6	29.33
212.074	43.29
212.548	34.92
213.021	36.8
213.495	48.82
213.969	48.76
214.443	37.21
214.917	29.01
215.391	32.53
215.864	38.34
216.338	34.84
216.812	32.69
217.286	28.3
217.759	38.08
218.233	28.09
218.706	28.29
219.18	28.92
219.654	34.35
220.127	30.54
220.6	27.63
221.074	30.43
221.547	33.83
222.021	35.44
222.494	39.68
222.967	39.25
223.441	30.82
223.914	30.81
224.387	28.89
224.86	32.78
225.334	38.72
225.807	25.69
226.28	29.11
226.753	30.11
227.226	29.59
227.699	25.07
228.172	27.98
228.645	30.87
229.118	22.96
229.591	27.23
230.064	25.87
230.537	26.34
231.01	26.4
231.482	25.88
231.955	20.84
232.428	23.71
232.901	25.38
233.373	24.22
233.846	26.29
234.319	25.19
234.791	26.29
235.264	24.26
235.736	25.84
236.209	24.4
236.681	23.37
237.154	25.91
237.626	24.66
238.099	25.52
238.571	24.61
239.044	25.67
239.516	24.93
239.988	23.42
240.46	26.53
240.933	23.34
241.405	23.49
241.877	22.59
242.349	24.42
242.821	24.81
243.293	24.22
243.765	24.39
244.237	24.78
244.71	24.24
245.181	24.01
245.653	22.82
246.125	24.24
246.597	24.3
247.069	23.27
247.541	24.32
248.013	23.62
248.485	25.12
248.956	22.67
249.428	22.61
249.9	22.51
250.371	23.04
250.843	21.77
251.315	21.54
251.786	20.66
252.258	22.11
252.729	22.52
253.201	21.46
253.672	21.82
254.144	22.07
254.615	21.45
255.086	22.4
255.558	20.94
256.029	22.62
256.5	22.23
256.972	22.19
257.443	21.64
257.914	21.19
258.385	22.86
258.856	21.09
259.327	22.07
259.799	21.11
260.27	21.62
260.741	21.42
261.212	21.34
261.683	22.07
262.154	21.21
262.624	21.94
263.095	21.42
263.566	21.45
264.037	22.56
264.508	21.69
264.979	21.77
265.449	21.79
265.92	21.22
266.391	21.62
266.861	20.89
267.332	20.99
267.803	22.61
268.273	20.92
268.744	20.57
269.214	22.01
269.685	21.59
270.155	21.57
270.626	21.4
271.096	21.7
271.566	22.89
272.037	21.2
272.507	21.57
272.977	21.43
273.448	22.18
273.918	21.64
274.388	20.93
274.858	21.34
275.328	22.35
275.798	20.28
276.268	21.59
276.738	21.64
277.208	21.61
277.678	21.37
278.148	20.33
278.618	20
279.088	21.91
279.558	19.89
280.028	19.72
280.498	20.26
280.968	20.97
281.437	20.7
281.907	20.45
282.377	20.42
282.847	21.22
283.316	21.15
283.786	21.11
284.255	21.27
284.725	20.28
285.194	21.23
285.664	21.14
286.133	20.55
286.603	20.28
287.072	21.33
287.542	20.69
288.011	21.16
288.48	20.08
288.95	21.24
289.419	20.23
289.888	21.34
290.357	21.03
290.827	20.07
291.296	20.57
291.765	20.36
292.234	21.24
292.703	19.74
293.172	22.54
293.641	20.9
294.11	21.01
294.579	20.72
295.048	20.97
295.517	21.34
295.986	21.95
296.455	20.68
296.923	21.73
297.392	21.3
297.861	21.85
298.33	21.66
298.798	21.77
299.267	21.86
299.736	21.68
300.204	21.71
300.673	22.28
301.141	21.12
301.61	22.48
302.079	20.84
302.547	21.12
303.015	21.12
303.484	21.73
303.952	21.66
304.421	21.73
304.889	21.72
305.357	22.38
305.825	21.07
306.294	21.1
306.762	21.86
307.23	21.32
307.698	22.32
308.166	22.5
308.634	20.7
309.103	22.28
309.571	22.13
310.039	22.72
310.507	21.49
310.975	22.12
311.442	21.96
311.91	21.68
312.378	21.83
312.846	22.03
313.314	21.68
313.782	22.09
314.249	22.55
314.717	22.27
315.185	21.93
315.652	21.95
316.12	22.24
316.588	21.18
317.055	22.98
317.523	22.94
317.99	23.75
318.458	22.35
318.925	22.46
319.393	22.44
319.86	21.2
320.328	23.14
320.795	22.81
321.262	23.64
321.73	21.94
322.197	23.26
322.664	21.75
323.131	23.29
323.598	23.36
324.066	23.9
324.533	22.05
325	22.95
325.467	23.68
325.934	23.28
326.401	23.77
326.868	23.53
327.335	23.57
327.802	24.05
328.269	24.54
328.735	23.42
329.202	24.59
329.669	24.82
330.136	24.64
330.603	24.87
331.069	25.05
331.536	24.52
332.003	26.01
332.469	26.33
332.936	25.59
333.402	25.44
333.869	25.91
334.336	25.11
334.802	24.79
335.268	26.05
335.735	25.42
336.201	25.9
336.668	24.73
337.134	25.19
337.6	24.34
338.067	26.15
338.533	23.94
338.999	25.38
339.465	24.96
339.931	25.42
340.398	25.88
340.864	25.96
341.33	25.22
341.796	26.31
342.262	26.28
342.728	25.52
343.194	25.31
343.66	24.54
344.126	25.62
344.592	25.06
345.057	25.56
345.523	23.77
345.989	26.54
346.455	24.4
346.921	26.66
347.386	26.02
347.852	25.99
348.318	25.47
348.783	26.73
349.249	24.75
349.714	25.59
350.18	25.73
350.645	26.34
351.111	24.61
351.576	25.4
352.042	25.65
352.507	25.6
352.973	24.15
353.438	24.42
353.903	25.45
354.369	24.27
354.834	25.22
355.299	24.93
355.764	25.04
356.229	25.35
356.695	24.91
357.16	25.82
357.625	25
358.09	24.34
358.555	25.24
359.02	26.27
359.485	24.63
359.95	22.96
360.415	25.03
360.879	25.69
361.344	24.94
361.809	24.89
362.274	23.58
362.739	27.08
363.203	25.11
363.668	23.07
364.133	24.56
364.597	23.48
365.062	24.52
365.527	23.79
365.991	24.99
366.456	23.47
366.92	25
367.385	25.02
367.849	23.23
368.314	24.73
368.778	23.87
369.242	24.91
369.707	26.02
370.171	24.94
370.635	22.9
371.1	25.1
371.564	24.18
372.028	24.33
372.492	23.2
372.956	23.76
373.42	24.98
373.884	22.24
374.348	24.08
374.812	23.73
375.276	23.35
375.74	22.78
376.204	23.18
376.668	22.29
377.132	24.89
377.596	22.45
378.06	24.2
378.524	23.13
378.987	23
379.451	23.73
379.915	24.43
380.378	23.38
380.842	23.42
381.306	24.05
381.769	22.98
382.233	24.23
382.696	23.63
383.16	23.67
383.623	22.99
384.087	22.98
384.55	21.3
385.014	23.36
385.477	21.55
385.94	23.74
386.404	23.65
386.867	22.47
387.33	21.86
387.793	22.62
388.256	21.61
388.72	22.02
389.183	23.16
389.646	22.4
390.109	23.04
390.572	24.41
391.035	22.02
391.498	21.88
391.961	23.24
392.424	23.02
392.887	22.81
393.35	22.82
393.812	22.42
394.275	22.16
394.738	22.13
395.201	21.73
395.664	22.27
396.126	22.83
396.589	22.27
397.052	22.47
397.514	22.31
397.977	21.89
398.439	21.74
398.902	21.6
399.364	22.73
399.827	22.04
400.289	22.67
400.752	21.7
401.214	22.07
401.676	22.08
402.139	20.91
402.601	21.7
403.063	21.29
403.525	22.2
403.988	22
404.45	21.02
404.912	22.36
405.374	20.47
405.836	21.71
406.298	21.95
406.76	21.82
407.222	20.05
407.684	20.9
408.146	21.97
408.608	20.77
409.07	22.19
409.532	21.29
409.994	20.4
410.456	20.36
410.917	20.73
411.379	21.99
411.841	20.18
412.303	21.45
412.764	22.04
413.226	19.93
413.687	20.56
414.149	21.86
414.611	22.1
415.072	20.91
415.534	22.07
415.995	22.32
416.457	20.4
416.918	20.41
417.379	20.13
417.841	21.33
418.302	20.45
418.763	20.96
419.225	20.68
419.686	21.3
420.147	20.37
420.608	20.28
421.069	21.12
421.53	20.83
421.991	20.49
422.453	21.01
422.914	21.67
423.375	21.32
423.836	19.8
424.297	20.47
424.757	22.04
425.218	20.21
425.679	20.7
426.14	20.74
426.601	19.51
427.062	20.35
427.522	20.1
427.983	20.42
428.444	19.31
428.904	19.54
429.365	20.25
429.826	20.07
430.286	20.63
430.747	19.69
431.207	20.98
431.668	20.54
432.128	21.58
432.589	20.79
433.049	19.72
433.509	21.78
433.97	18.37
434.43	20.81
434.89	18.38
435.351	17.69
435.811	20.66
436.271	19.84
436.731	19.94
437.191	21.52
437.651	20.52
438.112	21.65
438.572	20.52
439.032	20.89
439.492	20.11
439.952	20.13
440.412	19.7
440.871	19.87
441.331	21.32
441.791	21.47
442.251	21.76
442.711	18.73
443.171	19.28
443.63	17.35
444.09	19.82
444.55	18.92
445.009	20.73
445.469	18.54
445.929	19.4
446.388	19.28
446.848	18.43
447.307	20.63
447.767	19.23
448.226	21.07
448.686	18.98
449.145	20.09
449.604	19.3
450.064	20.83
450.523	21.26
450.982	19.38
451.442	19
451.901	21.49
452.36	19.03
452.819	19.81
453.278	20.3
453.737	20.69
454.197	21.24
454.656	20.01
455.115	20.8
455.574	22.94
456.033	21.37
456.492	21.87
456.95	18.96
457.409	21.02
457.868	19.38
458.327	20.91
458.786	18.99
459.245	20.88
459.703	20.45
460.162	20.3
460.621	19.82
461.079	19.6
461.538	20.14
461.997	21.11
462.455	20.83
462.914	20.45
463.372	20.45
463.831	19.28
464.289	20.03
464.748	21.44
465.206	22.73
465.664	20.24
466.123	20.46
466.581	20.16
467.039	21.69
467.497	20.76
467.956	21.8
468.414	22.78
468.872	20.97
469.33	21.09
469.788	21.78
470.246	24.99
470.704	20.63
471.162	21.34
471.62	22.02
472.078	22.92
472.536	24.17
472.994	23.85
473.452	22.83
473.91	22.76
474.368	22.83
474.826	25.03
475.283	25.86
475.741	22.51
476.199	22.99
476.656	26.01
477.114	24.54
477.572	23.74
478.029	26.8
478.487	25.66
478.944	25.91
479.402	25.01
479.859	25.75
480.317	26.13
480.774	28.98
481.232	25.82
481.689	27.02
482.146	27.4
482.604	27.67
483.061	28.48
483.518	27.77
483.975	26.6
484.433	30.73
484.89	28.99
485.347	28.83
485.804	31.39
486.261	30.56
486.718	32.45
487.175	32.31
487.632	31.32
488.089	32.37
488.546	34.48
489.003	31.56
489.46	33.28
489.917	33.84
490.373	32.85
490.83	31.49
491.287	35.74
491.744	31.56
492.2	33.97
492.657	33.06
493.114	35
493.57	33.52
494.027	34.83
494.484	36.03
494.94	34.28
495.397	35.63
495.853	35.29
496.31	36.15
496.766	36.64
497.222	34.79
497.679	35.23
498.135	36.27
498.591	34.51
499.048	35.43
499.504	35.53
499.96	37.7
500.416	36.68
500.872	36.65
501.329	37.3
501.785	36.5
502.241	36.05
502.697	38.26
503.153	37.9
503.609	37.13
504.065	38.03
504.521	35.25
504.977	41.42
505.432	35.32
505.888	37.47
506.344	39.03
506.8	39.29
507.256	39.55
507.711	36.32
508.167	39.45
508.623	39.66
509.078	38.08
509.534	39.89
509.99	38.39
510.445	39.26
510.901	39.4
511.356	38.35
511.812	39.72
512.267	38.23
512.722	41.14
513.178	38.89
513.633	39.16
514.089	38.43
514.544	40.55
514.999	38.11
515.454	39.36
515.91	39.67
516.365	41.49
516.82	38.87
517.275	41.13
517.73	40.33
518.185	39.67
518.64	40.49
519.095	38.43
519.55	38.24
520.005	38.99
520.46	37.49
520.915	38.98
521.37	39.45
521.825	39.72
522.28	38.08
522.734	38.36
523.189	40.14
523.644	39.24
524.099	42.26
524.553	40.01
525.008	40.38
525.462	43.51
525.917	42.16
526.372	40.85
526.826	40.37
527.281	42.32
527.735	41.6
528.19	39.75
528.644	42.19
529.098	39.81
529.553	40.89
530.007	41.72
530.461	40.13
530.916	40.57
531.37	41.94
531.824	44.16
532.278	42.39
532.732	42.73
533.186	42.34
533.641	43.99
534.095	43.84
534.549	42.21
535.003	41.42
535.457	42.25
535.911	44.77
536.365	45.7
536.818	40.71
537.272	45.51
537.726	43.07
538.18	43.73
538.634	43.83
539.087	44.54
539.541	45.6
539.995	42.75
540.449	43.47
540.902	44.97
541.356	43.31
541.809	44.96
542.263	44.03
542.716	45.59
543.17	43.52
543.623	46.7
544.077	44.14
544.53	44.57
544.984	45.12
545.437	44.82
545.89	44.63
546.344	42.66
546.797	46.17
547.25	45.07
547.703	46.35
548.157	44.57
548.61	45.6
549.063	47.27
549.516	47.38
549.969	45.75
550.422	47.91
550.875	45.99
551.328	49.06
551.781	48.29
552.234	47.36
552.687	45.71
553.14	47.06
553.592	44.29
554.045	45.3
554.498	45.73
554.951	47.47
555.404	45.1
555.856	49.48
556.309	47.24
556.762	46.84
557.214	46.32
557.667	46.67
558.119	47.21
558.572	44.72
559.024	47.21
559.477	45.21
559.929	46.79
560.382	45.76
560.834	48.42
561.286	46.54
561.739	46.52
562.191	46.69
562.643	47.66
563.095	49.66
563.548	47.98
564	48.02
564.452	47.69
564.904	46.32
565.356	45.78
565.808	48.26
566.26	47.45
566.712	46.37
567.164	48.18
567.616	46.83
568.068	49.44
568.52	47.77
568.972	48.52
569.424	46.95
569.876	49.04
570.327	48.81
570.779	46.1
571.231	50.03
571.682	48.97
572.134	46.17
572.586	50.7
573.037	46.18
573.489	47.25
573.941	49.29
574.392	48.06
574.844	48.47
575.295	47.77
575.746	47.66
576.198	50.19
576.649	49.8
577.101	47.35
577.552	49.01
578.003	49.05
578.454	48.09
578.906	46.07
579.357	48.14
579.808	48.49
580.259	48.25
580.71	48.66
581.161	49.07
581.612	48.27
582.064	49.81
582.515	48.02
582.965	49.3
583.416	48.61
583.867	47.94
584.318	48.76
584.769	48.51
585.22	47.56
585.671	48.42
586.122	50.55
586.572	48.4
587.023	50.08
587.474	47.41
587.924	50.61
588.375	47.84
588.826	47.61
589.276	48.07
589.727	51.17
590.177	48.25
590.628	48.31
591.078	47.54
591.529	49.79
591.979	48.39
592.429	49.33
592.88	50
593.33	48.01
593.78	48.09
594.231	49.37
594.681	49.48
595.131	48.9
595.581	48.59
596.031	48.27
596.481	48.78
596.932	48.41
597.382	48.95
597.832	48.93
598.282	49.48
598.732	50.53
599.182	48.69
599.632	49.26
600.081	48.05
600.531	49.22
600.981	48.56
601.431	48.42
601.881	50.6
602.33	47.61
602.78	48.98
603.23	50.06
603.679	49.43
604.129	51.08
604.579	50.44
605.028	48.66
605.478	49.77
605.927	49.95
606.377	48.17
606.826	49.1
607.276	49
607.725	49.37
608.175	49.97
608.624	50.53
609.073	49.81
609.522	50.25
609.972	48.65
610.421	49.9
610.87	48.54
611.319	48.31
611.768	48.59
612.218	48.76
612.667	50.18
613.116	50.07
613.565	49.69
614.014	48.14
614.463	48.03
614.912	48.41
615.361	48.97
615.81	49.52
616.258	48.49
616.707	48.63
617.156	49
617.605	48.99
618.054	50.81
618.502	49.51
618.951	48.73
619.4	48.82
619.848	50
620.297	49.34
620.745	50.8
621.194	47.72
621.642	48.34
622.091	49.58
622.539	49.27
622.988	49.88
623.436	50.37
623.885	49.82
624.333	49.33
624.781	49.45
625.23	48.94
625.678	50.01
626.126	49.53
626.574	47.4
627.022	47.59
627.471	48.25
627.919	49.92
628.367	48.97
628.815	49.79
629.263	48.83
629.711	48.66
630.159	48.45
630.607	48.71
631.055	49.44
631.503	48.66
631.95	48.81
632.398	47.6
632.846	48.61
633.294	49.01
633.742	49.58
634.189	48.38
634.637	49.99
635.085	47.97
635.532	48.39
635.98	48.14
636.427	49.39
636.875	48.71
637.323	48.96
637.77	47.63
638.217	50.24
638.665	49.61
639.112	49.87
639.56	48.3
640.007	48.88
640.454	49.83
640.902	49.02
641.349	49.58
641.796	48.13
642.243	48.73
642.69	48.45
643.138	47.92
643.585	50.4
644.032	50.12
644.479	49.12
644.926	50.19
645.373	49.12
645.82	49.57
646.267	48.16
646.714	48.86
647.161	49.75
647.607	48.44
648.054	48.21
648.501	49.78
648.948	48.93
649.395	49.98
649.841	49.41
650.288	48.52
650.735	49.81
651.181	48.53
651.628	48.87
652.075	47.87
652.521	48.96
652.968	49.03
653.414	48.05
653.861	48.3
654.307	48.45
654.753	48.95
655.2	49.79
655.646	47.61
656.092	49.17
656.539	47.48
656.985	48.65
657.431	49.01
657.877	50.31
658.324	49.06
658.77	49.28
659.216	49.44
659.662	48.04
660.108	48.27
660.554	49.29
661	46.69
661.446	48.78
661.892	50.13
662.338	49.06
662.784	49.55
663.23	48
663.675	47.98
664.121	49.09
664.567	49.8
665.013	48.93
665.458	48.76
665.904	48.79
666.35	48.31
666.795	48.96
667.241	47.96
667.687	48.91
668.132	48.15
668.578	48.95
669.023	49.29
669.469	48.13
669.914	49.81
670.359	49.56
670.805	48.49
671.25	47.99
671.695	47.98
672.141	48.78
672.586	48.69
673.031	48.8
673.476	49.92
673.922	48.68
674.367	49.12
674.812	48.83
675.257	47.54
675.702	48.84
676.147	48.15
676.592	48.12
677.037	47.93
677.482	48.9
677.927	48.91
678.372	48.72
678.817	48.88
679.261	49.23
679.706	48.88
680.151	48.47
680.596	47.3
681.04	48.79
681.485	47.67
681.93	49.39
682.374	49.02
682.819	50.41
683.264	49.33
683.708	48.84
684.153	48.7
684.597	49.32
685.042	48.34
685.486	48.89
685.93	48.41
686.375	48.61
686.819	47.44
687.263	49.29
687.708	48.43
688.152	49.09
688.596	48.19
689.04	48.29
689.485	48.33
689.929	49.03
690.373	48.69
690.817	48.8
691.261	48.32
691.705	48.88
692.149	47.74
692.593	48.19
693.037	48.48
693.481	47.67
693.925	48.04
694.369	48.5
694.812	49.28
695.256	48.62
695.7	49.46
696.144	47.54
696.587	48.74
697.031	48.5
697.475	48.2
697.918	48.56
698.362	48.66
698.806	48.78
699.249	49.21
699.693	47.87
700.136	47.66
700.58	47.62
701.023	47.88
701.466	47.79
701.91	48.15
702.353	48.38
702.796	48.83
703.24	47.73
703.683	48.34
704.126	48.23
704.569	46.79
705.013	47.9
705.456	48.68
705.899	47.23
706.342	47.98
706.785	47.81
707.228	49.07
707.671	47.18
708.114	48.44
708.557	47.77
709	49.22
709.443	47.98
709.886	47.95
710.328	47.95
710.771	48.51
711.214	48.54
711.657	47.9
712.099	47.26
712.542	48.89
712.985	47.26
713.427	48.56
713.87	48.44
714.313	47.95
714.755	47.98
715.198	47.54
715.64	47.49
716.083	47.39
716.525	47.43
716.967	47.59
717.41	47.55
717.852	47.35
718.295	47.78
718.737	47.44
719.179	48.33
719.621	47.81
720.063	47.39
720.506	47.52
720.948	48.45
721.39	47.02
721.832	47.25
722.274	47.09
722.716	47.42
723.158	47.51
723.6	47.35
724.042	47.26
724.484	47.29
724.926	47.41
725.368	47.59
725.81	47.63
726.251	48.77
726.693	48.32
727.135	48.1
727.577	46.84
728.018	47.39
728.46	47.06
728.902	47.97
729.343	47.89
729.785	47.36
730.226	47.47
730.668	46.83
731.109	47.56
731.551	47.37
731.992	47.99
732.434	47.11
732.875	47.69
733.316	48.37
733.758	47.34
734.199	47.96
734.64	47.18
735.081	46.26
735.523	48.36
735.964	46.87
736.405	46.39
736.846	47.74
737.287	47.28
737.728	47.33
738.169	47.21
738.61	47.76
739.051	48.37
739.492	48.73
739.933	46.28
740.374	46.73
740.815	47.74
741.256	48.18
741.696	48.01
742.137	46.14
742.578	49.12
743.019	46.38
743.459	46.51
743.9	47.14
744.341	47.73
744.781	46.66
745.222	46.93
745.662	46.31
746.103	46.77
746.543	46.53
746.984	47.14
747.424	46.84
747.865	47.53
748.305	47.44
748.745	46.56
749.186	47.43
749.626	47.37
750.066	47.03
750.506	47.9
750.947	45.46
751.387	47.74
751.827	46.71
752.267	46.66
752.707	47.14
753.147	47.15
753.587	47.4
754.027	47.67
754.467	47.21
754.907	47.54
755.347	48.09
755.787	47.14
756.227	46.78
756.667	46.64
757.107	48.01
757.546	46.83
757.986	47.15
758.426	46.8
758.865	46.9
759.305	47.37
759.745	46.75
760.184	48.02
760.624	47.61
761.063	47.34
761.503	47.56
761.943	46.35
762.382	46.28
762.821	47.28
763.261	47
763.7	46.86
764.14	46.68
764.579	46.93
765.018	47.35
765.457	46.81
765.897	46.65
766.336	48.05
766.775	46.56
767.214	46.31
767.653	47.33
768.092	46.76
768.531	47.48
768.97	47.87
769.409	46.87
769.848	47.1
770.287	46.56
770.726	47.46
771.165	46.95
771.604	46.83
772.043	46.75
772.482	47.66
772.92	47.96
773.359	46.55
773.798	47.47
774.237	46.72
774.675	48.11
775.114	47.75
775.553	47.2
775.991	46.34
776.43	47.08
776.868	46.28
777.307	46.74
777.745	46.55
778.184	46.66
778.622	46.33
779.06	46.07
779.499	47.39
779.937	46.27
780.375	46.46
780.814	46.51
781.252	45.9
781.69	47.07
782.128	46.6
782.566	46.58
783.004	45.39
783.443	45.94
783.881	46.55
784.319	45.91
784.757	46.26
785.195	45.94
785.633	46.22
786.071	46.73
786.508	46.92
786.946	45.97
787.384	46.03
787.822	45.78
788.26	46.06
788.697	46.16
789.135	46.13
789.573	46.54
790.011	46.76
790.448	46.19
790.886	46.04
791.323	45.88
791.761	46.47
792.198	45.74
792.636	46.35
793.073	45.66
793.511	46.7
793.948	45.97
794.386	47.23
794.823	45.61
795.26	45.93
795.698	45.48
796.135	45.89
796.572	46.69
797.009	44.74
797.446	46.82
797.884	45.91
798.321	45.79
798.758	46.55
799.195	46.01
799.632	45.63
800.069	46.42
800.506	46.34
800.943	45.83
801.38	45.93
801.817	45.92
802.254	45.19
802.69	45.71
803.127	45.23
803.564	45.93
804.001	46.19
804.438	46.8
804.874	45.55
