Data from JCR0033_White2_Reflection_00001.txt Node
Date: Fri Jul 31 14:59:05 ACST 2020
User: Stacey Dix
Spectrometer: MAYP113282
Scans to average: 1
Trigger mode: 0
Integration Time (sec): 1.000000E-1
Electric dark correction enabled: true
Boxcar width: 0
XAxis mode: Wavelengths
Number of Pixels in Spectrum: 2068
>>>>>Begin Spectral Data<<<<<
198.791	0
199.266	44.44
199.74	-33.33
200.215	33.33
200.69	40.25
201.164	-3.14
201.639	27.11
202.114	21.14
202.588	21.14
203.063	54.31
203.537	10.96
204.012	36.44
204.486	31.6
204.961	20.72
205.435	25.3
205.909	21.68
206.384	38.63
206.858	28.07
207.332	-3.03
207.807	30.53
208.281	8.76
208.755	26.57
209.229	18.94
209.703	8.56
210.177	17.54
210.651	9.72
211.126	26.17
211.6	25.06
212.074	24.56
212.548	24.04
213.021	19.05
213.495	26.19
213.969	22.94
214.443	29.12
214.917	21.34
215.391	24.61
215.864	15.4
216.338	13.7
216.812	17.81
217.286	19.97
217.759	25.4
218.233	13.19
218.706	13.77
219.18	15.55
219.654	20.13
220.127	12.21
220.6	15.72
221.074	12.39
221.547	16.72
222.021	21.78
222.494	10.66
222.967	15.32
223.441	9.66
223.914	13.53
224.387	8.56
224.86	7.57
225.334	9.62
225.807	13.56
226.28	14.61
226.753	7.92
227.226	10.79
227.699	9.61
228.172	15.09
228.645	13.13
229.118	11.98
229.591	6.17
230.064	9.45
230.537	8.26
231.01	8.01
231.482	7.71
231.955	11.97
232.428	11.01
232.901	7.38
233.373	8.54
233.846	7.92
234.319	8.58
234.791	7.25
235.264	8.41
235.736	8
236.209	9.85
236.681	6.87
237.154	8.47
237.626	8.72
238.099	8.55
238.571	8.25
239.044	8.02
239.516	7.59
239.988	8.15
240.46	9.08
240.933	7.64
241.405	8.65
241.877	8.05
242.349	7.17
242.821	8.39
243.293	7.65
243.765	8.17
244.237	7.44
244.71	7.7
245.181	7.39
245.653	8.46
246.125	6.79
246.597	7.91
247.069	8.7
247.541	8.02
248.013	8.24
248.485	7.75
248.956	7.92
249.428	8.09
249.9	6.91
250.371	7.48
250.843	8.39
251.315	6.43
251.786	7.21
252.258	7.21
252.729	7.02
253.201	7.36
253.672	6.18
254.144	6.47
254.615	6.82
255.086	6.95
255.558	7.08
256.029	7.34
256.5	6.2
256.972	6.36
257.443	6.38
257.914	6.99
258.385	7.3
258.856	6.8
259.327	6.43
259.799	6.68
260.27	6.52
260.741	6.32
261.212	6.68
261.683	7.22
262.154	7.5
262.624	7.42
263.095	6.07
263.566	6.51
264.037	6.43
264.508	6.39
264.979	6.86
265.449	6.76
265.92	6.86
266.391	6.25
266.861	6.7
267.332	6.43
267.803	6.51
268.273	6.93
268.744	6.38
269.214	6.35
269.685	6.5
270.155	6.58
270.626	6.21
271.096	6.28
271.566	6.57
272.037	6.26
272.507	7
272.977	7.22
273.448	6.82
273.918	6.36
274.388	6.39
274.858	6.4
275.328	6.41
275.798	6.17
276.268	6.88
276.738	5.99
277.208	7.06
277.678	6.34
278.148	7.05
278.618	6.37
279.088	6.71
279.558	5.73
280.028	6.91
280.498	6.43
280.968	6.42
281.437	6.74
281.907	6.4
282.377	5.93
282.847	6.58
283.316	4.98
283.786	6.57
284.255	5.82
284.725	6.18
285.194	6.17
285.664	7.12
286.133	6.73
286.603	6.12
287.072	6.47
287.542	6.43
288.011	6.23
288.48	6.62
288.95	6.35
289.419	5.82
289.888	6.09
290.357	6.37
290.827	6.17
291.296	5.91
291.765	6.59
292.234	6.62
292.703	5.87
293.172	6.28
293.641	5.56
294.11	5.96
294.579	6
295.048	6
295.517	6.37
295.986	6.12
296.455	7.09
296.923	6.37
297.392	6.35
297.861	6.76
298.33	6.57
298.798	6.03
299.267	6.42
299.736	5.92
300.204	6.48
300.673	5.9
301.141	6.82
301.61	6.8
302.079	6.83
302.547	6.81
303.015	6.72
303.484	6.11
303.952	6.38
304.421	6.69
304.889	6.72
305.357	6.57
305.825	6.07
306.294	5.65
306.762	5.52
307.23	6.12
307.698	5.91
308.166	6.35
308.634	6.34
309.103	6.5
309.571	5.95
310.039	7.01
310.507	5.57
310.975	6.3
311.442	6.68
311.91	5.41
312.378	6.05
312.846	5.8
313.314	6.72
313.782	6.48
314.249	6.71
314.717	6.53
315.185	6.52
315.652	6.47
316.12	6.42
316.588	6.2
317.055	6.8
317.523	6.67
317.99	6.33
318.458	6.89
318.925	6.57
319.393	6.8
319.86	6.77
320.328	7.36
320.795	7.33
321.262	8.15
321.73	7.97
322.197	7.92
322.664	8.73
323.131	9.31
323.598	9.93
324.066	9.56
324.533	10.29
325	11.05
325.467	11.6
325.934	11.35
326.401	12.83
326.868	13.32
327.335	14.48
327.802	14.75
328.269	15.14
328.735	17.7
329.202	17.11
329.669	18.74
330.136	18.65
330.603	20.61
331.069	21.02
331.536	21.55
332.003	23.22
332.469	22.51
332.936	24.02
333.402	23.27
333.869	24.7
334.336	24.33
334.802	23.82
335.268	24.08
335.735	23.68
336.201	24.75
336.668	25.04
337.134	25.22
337.6	24.6
338.067	24.28
338.533	26.12
338.999	24.77
339.465	24.96
339.931	24.73
340.398	26.1
340.864	24.99
341.33	25.1
341.796	26.49
342.262	25.32
342.728	25.03
343.194	26.4
343.66	24.74
344.126	24.83
344.592	25.94
345.057	25.47
345.523	26.22
345.989	24.7
346.455	25.44
346.921	25.87
347.386	24.41
347.852	26.58
348.318	25.28
348.783	25.76
349.249	24.08
349.714	24.85
350.18	25.57
350.645	24.45
351.111	23.82
351.576	24.11
352.042	24.83
352.507	23.13
352.973	24.65
353.438	24.11
353.903	23.9
354.369	24.46
354.834	23.45
355.299	24.28
355.764	22.95
356.229	24.96
356.695	24.18
357.16	22.8
357.625	22.93
358.09	24.58
358.555	24.91
359.02	23.85
359.485	23.86
359.95	24.61
360.415	23.8
360.879	22.99
361.344	23.29
361.809	24.58
362.274	23.86
362.739	23.94
363.203	24.04
363.668	24.55
364.133	22.71
364.597	24.52
365.062	25.1
365.527	24.94
365.991	23.72
366.456	23.29
366.92	24.15
367.385	23.92
367.849	23.82
368.314	25.02
368.778	24.14
369.242	23.11
369.707	22.83
370.171	22.03
370.635	24.21
371.1	24.96
371.564	23.46
372.028	24.64
372.492	23.99
372.956	25.38
373.42	23.92
373.884	23.51
374.348	23.28
374.812	24.29
375.276	22.95
375.74	23.41
376.204	23.79
376.668	22.32
377.132	23
377.596	24.16
378.06	23.56
378.524	22.55
378.987	23.25
379.451	23.35
379.915	23.14
380.378	23.67
380.842	23.71
381.306	23.33
381.769	24.17
382.233	24.16
382.696	23.78
383.16	23.17
383.623	23.89
384.087	24.8
384.55	24.41
385.014	23.92
385.477	23.64
385.94	23.44
386.404	22.97
386.867	23.63
387.33	21.99
387.793	23.86
388.256	23.08
388.72	22.84
389.183	22.73
389.646	23.31
390.109	23.03
390.572	23.81
391.035	22.62
391.498	23.63
391.961	22.88
392.424	22.59
392.887	22.95
393.35	22.98
393.812	22.98
394.275	22.67
394.738	22.65
395.201	23.44
395.664	23.22
396.126	21.89
396.589	22.19
397.052	22.86
397.514	22.97
397.977	21.04
398.439	22.98
398.902	21.93
399.364	22.23
399.827	22.26
400.289	22.07
400.752	22.03
401.214	22.08
401.676	22.77
402.139	22.69
402.601	20.95
403.063	21.08
403.525	23.1
403.988	22.57
404.45	22.64
404.912	22.33
405.374	21.52
405.836	20.6
406.298	22.6
406.76	22.14
407.222	21.38
407.684	20.98
408.146	20.36
408.608	21.24
409.07	21.75
409.532	20.81
409.994	22.35
410.456	20.25
410.917	20.46
411.379	21.33
411.841	20.09
412.303	22.4
412.764	21.08
413.226	21.09
413.687	20.74
414.149	21.68
414.611	21.24
415.072	19.98
415.534	21.22
415.995	21.73
416.457	22.55
416.918	23.09
417.379	22.04
417.841	22
418.302	22.65
418.763	22.71
419.225	22.97
419.686	22.7
420.147	22.58
420.608	22.61
421.069	23.7
421.53	22.63
421.991	23.88
422.453	22.65
422.914	23.52
423.375	22.35
423.836	23.66
424.297	22.96
424.757	23.48
425.218	24.88
425.679	24.65
426.14	24.1
426.601	23.25
427.062	23.11
427.522	25.19
427.983	24.62
428.444	23.05
428.904	23.07
429.365	24.62
429.826	24.51
430.286	22.56
430.747	24.63
431.207	25.55
431.668	24.32
432.128	23.22
432.589	26.34
433.049	25.39
433.509	23.8
433.97	26.46
434.43	24.88
434.89	25.21
435.351	23.56
435.811	25.08
436.271	24.39
436.731	24.32
437.191	24.89
437.651	25.54
438.112	26.18
438.572	25.33
439.032	26.62
439.492	26.43
439.952	23.63
440.412	25.82
440.871	23.99
441.331	25.94
441.791	26.68
442.251	26.24
442.711	26.42
443.171	27.03
443.63	24.6
444.09	28.41
444.55	25.69
445.009	26.64
445.469	24.34
445.929	26.36
446.388	27.22
446.848	27.22
447.307	25.56
447.767	26.61
448.226	25.66
448.686	26.08
449.145	26.47
449.604	25.9
450.064	25.57
450.523	27.77
450.982	27.23
451.442	25.68
451.901	25.75
452.36	25.97
452.819	26.07
453.278	27.09
453.737	26.21
454.197	25.32
454.656	26.86
455.115	26.25
455.574	25.92
456.033	25.4
456.492	26.19
456.95	26.51
457.409	26.47
457.868	27.39
458.327	26.19
458.786	26.63
459.245	26
459.703	27.36
460.162	26.8
460.621	26.32
461.079	24.79
461.538	25.62
461.997	26.5
462.455	26.49
462.914	26.62
463.372	24.98
463.831	28.27
464.289	26.84
464.748	26.58
465.206	26.21
465.664	25.44
466.123	29.48
466.581	23.76
467.039	25.76
467.497	26.88
467.956	26.3
468.414	25.91
468.872	25.16
469.33	25.25
469.788	26.18
470.246	28.57
470.704	26.1
471.162	26.32
471.62	27.51
472.078	25.47
472.536	27.91
472.994	26.36
473.452	24.81
473.91	25.21
474.368	25.78
474.826	25.31
475.283	26.39
475.741	25.41
476.199	24.97
476.656	26.18
477.114	26.24
477.572	27.62
478.029	25.32
478.487	26.98
478.944	25.79
479.402	25.72
479.859	26.02
480.317	27.04
480.774	25.1
481.232	27.49
481.689	26.62
482.146	25.61
482.604	26.89
483.061	25.4
483.518	25.69
483.975	26.21
484.433	26.11
484.89	25.22
485.347	26.3
485.804	25.71
486.261	26.16
486.718	23.15
487.175	25.17
487.632	26.99
488.089	23.37
488.546	24.69
489.003	24.29
489.46	26.03
489.917	26.14
490.373	27.26
490.83	24.74
491.287	24.79
491.744	25.69
492.2	27.41
492.657	24.42
493.114	24.07
493.57	29.08
494.027	23.89
494.484	26.9
494.94	26.9
495.397	26.1
495.853	27.8
496.31	24.3
496.766	26.42
497.222	26.17
497.679	25.6
498.135	26.08
498.591	25.79
499.048	24.22
499.504	24.53
499.96	27.73
500.416	25.5
500.872	24.02
501.329	25.61
501.785	24.17
502.241	27.04
502.697	26.39
503.153	24.58
503.609	25.43
504.065	25.64
504.521	26.2
504.977	25.2
505.432	26.22
505.888	25.57
506.344	25.94
506.8	25.85
507.256	25.17
507.711	24.84
508.167	24.78
508.623	24.73
509.078	24.25
509.534	25.3
509.99	24.91
510.445	25.48
510.901	25.63
511.356	26.39
511.812	25.38
512.267	26.78
512.722	25.75
513.178	26.39
513.633	26.37
514.089	25.32
514.544	26.45
514.999	26.2
515.454	25.2
515.91	25.75
516.365	26.89
516.82	25.29
517.275	24.96
517.73	24.71
518.185	25.33
518.64	25.18
519.095	24.94
519.55	24.03
520.005	25.87
520.46	24.42
520.915	26.46
521.37	26.31
521.825	25.5
522.28	25.61
522.734	25.66
523.189	24.48
523.644	25.86
524.099	25.61
524.553	25.58
525.008	24.34
525.462	26.85
525.917	25.03
526.372	25.82
526.826	23.49
527.281	27.48
527.735	26.1
528.19	25.74
528.644	27.48
529.098	24.75
529.553	25.62
530.007	24.71
530.461	25.35
530.916	26.43
531.37	25.95
531.824	24.77
532.278	25.29
532.732	26.77
533.186	25.59
533.641	26.68
534.095	26.44
534.549	28.77
535.003	26.2
535.457	26.66
535.911	26.5
536.365	25.29
536.818	26.35
537.272	26.5
537.726	26.26
538.18	26.04
538.634	25.51
539.087	26.13
539.541	26.39
539.995	25.24
540.449	23.08
540.902	26.73
541.356	24.38
541.809	25.94
542.263	26.62
542.716	27.77
543.17	24.04
543.623	24.11
544.077	25.48
544.53	27.07
544.984	25.36
545.437	24.98
545.89	25.29
546.344	26.27
546.797	27.68
547.25	26.08
547.703	26.13
548.157	26.48
548.61	25.72
549.063	27.13
549.516	26.08
549.969	25.52
550.422	27.66
550.875	25.76
551.328	24.89
551.781	25.92
552.234	24.82
552.687	26.17
553.14	26.07
553.592	25.87
554.045	26.91
554.498	26.3
554.951	25.67
555.404	25.69
555.856	25.58
556.309	26.6
556.762	26.66
557.214	26.28
557.667	25.51
558.119	26.18
558.572	26.67
559.024	26.36
559.477	26.95
559.929	25.31
560.382	26.44
560.834	25.42
561.286	27.26
561.739	25.71
562.191	27.74
562.643	26.68
563.095	27.02
563.548	26.6
564	26.84
564.452	25.94
564.904	25.55
565.356	27.03
565.808	25.44
566.26	27.26
566.712	27.67
567.164	27.3
567.616	25.68
568.068	25.94
568.52	25.43
568.972	25.56
569.424	27.11
569.876	26.38
570.327	27.14
570.779	25.73
571.231	25.5
571.682	26.91
572.134	26.68
572.586	25.75
573.037	26.78
573.489	26.56
573.941	27.15
574.392	26.46
574.844	26.76
575.295	26.93
575.746	26.52
576.198	26.98
576.649	26.12
577.101	27.38
577.552	26.06
578.003	27.79
578.454	26.44
578.906	27.84
579.357	26.7
579.808	27.63
580.259	27.41
580.71	25.94
581.161	26.59
581.612	27.52
582.064	26.64
582.515	26.56
582.965	27.24
583.416	26.51
583.867	26.37
584.318	26.92
584.769	27.58
585.22	25.6
585.671	27.42
586.122	26.32
586.572	26.54
587.023	26.86
587.474	26.3
587.924	26.86
588.375	27.58
588.826	26.92
589.276	27.11
589.727	26.46
590.177	25.6
590.628	26.66
591.078	27.13
591.529	27.05
591.979	26.13
592.429	25.98
592.88	26.25
593.33	26.32
593.78	26.72
594.231	27.18
594.681	27.48
595.131	26.36
595.581	26.76
596.031	26.37
596.481	27.11
596.932	26.28
597.382	27.17
597.832	26.09
598.282	26.54
598.732	27.44
599.182	26.95
599.632	26.16
600.081	27.51
600.531	26.22
600.981	26.28
601.431	26.02
601.881	26.68
602.33	27.31
602.78	26.67
603.23	26.11
603.679	26.67
604.129	26.64
604.579	26.64
605.028	27.09
605.478	26.5
605.927	26.6
606.377	27.12
606.826	26.38
607.276	27.28
607.725	27.48
608.175	26.93
608.624	25.97
609.073	26.81
609.522	26.13
609.972	26.41
610.421	26.9
610.87	25.98
611.319	27.36
611.768	26.44
612.218	26.77
612.667	26.61
613.116	27.09
613.565	26.66
614.014	26.84
614.463	27.76
614.912	25.95
615.361	26.31
615.81	26.82
616.258	26.78
616.707	26.93
617.156	26.12
617.605	27.09
618.054	25.62
618.502	26.05
618.951	26.8
619.4	26.57
619.848	26.45
620.297	26.38
620.745	27.37
621.194	26.82
621.642	27.11
622.091	27.19
622.539	27.55
622.988	25.81
623.436	25.28
623.885	27.03
624.333	26.67
624.781	26.6
625.23	27.55
625.678	26.85
626.126	26.45
626.574	26.85
627.022	25.58
627.471	25.93
627.919	26.55
628.367	26.32
628.815	25.99
629.263	26.6
629.711	26.35
630.159	25.77
630.607	27.05
631.055	26.15
631.503	27.58
631.95	26.56
632.398	27.05
632.846	26.39
633.294	27.22
633.742	26.9
634.189	25.65
634.637	26.43
635.085	26.75
635.532	26.76
635.98	27.31
636.427	26.06
636.875	27.85
637.323	26.33
637.77	26.26
638.217	26.53
638.665	25.24
639.112	26.48
639.56	26.12
640.007	26.77
640.454	26.7
640.902	26.81
641.349	26.78
641.796	26.8
642.243	26.57
642.69	26.06
643.138	25.92
643.585	27.24
644.032	27.34
644.479	26.54
644.926	26.27
645.373	26.8
645.82	26.35
646.267	26.77
646.714	27.2
647.161	25.17
647.607	25.52
648.054	26.69
648.501	28.1
648.948	26.42
649.395	26.61
649.841	26.86
650.288	27.43
650.735	27.01
651.181	26.53
651.628	26.33
652.075	26.04
652.521	25.99
652.968	27.4
653.414	26.91
653.861	26.34
654.307	25.99
654.753	26.06
655.2	26.97
655.646	25.87
656.092	26.87
656.539	26.78
656.985	26.59
657.431	26.53
657.877	26.13
658.324	26.34
658.77	26.64
659.216	26.69
659.662	25.79
660.108	26.55
660.554	26.75
661	26.68
661.446	26.1
661.892	26.37
662.338	26.85
662.784	27.67
663.23	26.45
663.675	26.73
664.121	26.54
664.567	26.55
665.013	26.99
665.458	26.79
665.904	26.72
666.35	26.24
666.795	26.57
667.241	26.77
667.687	26.93
668.132	26.2
668.578	26.66
669.023	27.57
669.469	26.64
669.914	26.59
670.359	26.49
670.805	26.71
671.25	27.08
671.695	26.21
672.141	26.51
672.586	27.02
673.031	26.34
673.476	26.54
673.922	26.57
674.367	26.55
674.812	26.85
675.257	26.88
675.702	26.66
676.147	27.28
676.592	26.98
677.037	26.78
677.482	26.49
677.927	26.62
678.372	26.23
678.817	26.31
679.261	26.61
679.706	26.88
680.151	25.97
680.596	26.5
681.04	26.07
681.485	27.37
681.93	26.66
682.374	26.81
682.819	27.11
683.264	26.8
683.708	26.74
684.153	27.24
684.597	25.85
685.042	26.7
685.486	25.88
685.93	26.66
686.375	26.24
686.819	26.39
687.263	26.59
687.708	26.99
688.152	27.14
688.596	26.7
689.04	26.24
689.485	26.87
689.929	26.56
690.373	27.21
690.817	27.24
691.261	27.23
691.705	26.29
692.149	26.31
692.593	26.58
693.037	26.39
693.481	26.44
693.925	26.59
694.369	27.18
694.812	26.71
695.256	26.62
695.7	26.92
696.144	27.14
696.587	26.3
697.031	26.75
697.475	26.5
697.918	26.56
698.362	26.54
698.806	27.15
699.249	27.12
699.693	26.63
700.136	27.24
700.58	26.7
701.023	26.84
701.466	26.57
701.91	27.69
702.353	27.33
702.796	26.33
703.24	26.92
703.683	26.87
704.126	26.93
704.569	26.37
705.013	26.96
705.456	26.76
705.899	26.83
706.342	26.97
706.785	26.54
707.228	27.4
707.671	26.8
708.114	27.26
708.557	27.22
709	27.07
709.443	26.84
709.886	26.3
710.328	27.16
710.771	27.53
711.214	26.47
711.657	27.24
712.099	26.34
712.542	26.74
712.985	27
713.427	27.28
713.87	27.1
714.313	27
714.755	26.77
715.198	26.6
715.64	26.53
716.083	26.94
716.525	26.79
716.967	25.55
717.41	26.67
717.852	27.07
718.295	27.16
718.737	27.52
719.179	26.82
719.621	27.13
720.063	26.44
720.506	26.02
720.948	27.77
721.39	26.18
721.832	26.77
722.274	27.43
722.716	27.27
723.158	26.68
723.6	26.68
724.042	27.09
724.484	27.07
724.926	27.57
725.368	26.86
725.81	27.03
726.251	26.64
726.693	26.76
727.135	27.12
727.577	27.02
728.018	26.87
728.46	26.14
728.902	27.26
729.343	27.7
729.785	27.27
730.226	27.15
730.668	26.43
731.109	26.85
731.551	26.45
731.992	26.89
732.434	26.53
732.875	26.49
733.316	27.41
733.758	26.6
734.199	26.74
734.64	27.52
735.081	27.01
735.523	27.47
735.964	26.49
736.405	26.16
736.846	26.78
737.287	26.29
737.728	26.75
738.169	26.76
738.61	26.69
739.051	27.16
739.492	26.64
739.933	27.38
740.374	27.3
740.815	27.11
741.256	27.12
741.696	27.14
742.137	26.02
742.578	27.61
743.019	27.17
743.459	26.59
743.9	26.68
744.341	26.79
744.781	27.12
745.222	26.51
745.662	27.07
746.103	27.23
746.543	27.01
746.984	27.46
747.424	26.57
747.865	27.48
748.305	26.39
748.745	27.36
749.186	27.1
749.626	27.02
750.066	26.56
750.506	27.12
750.947	26.77
751.387	26.63
751.827	26.94
752.267	26.16
752.707	26.79
753.147	26.81
753.587	27.27
754.027	26.57
754.467	26.8
754.907	26.89
755.347	26.88
755.787	27.26
756.227	26.89
756.667	27.13
757.107	26.82
757.546	26.63
757.986	26.1
758.426	27.31
758.865	26.52
759.305	26.93
759.745	26.89
760.184	26.91
760.624	27.19
761.063	27.6
761.503	26.73
761.943	26.3
762.382	27.41
762.821	27.64
763.261	26.94
763.7	26.75
764.14	26.14
764.579	26.22
765.018	27.32
765.457	27.67
765.897	26.25
766.336	27.1
766.775	27.15
767.214	26.83
767.653	26.57
768.092	26.95
768.531	27.27
768.97	26.57
769.409	27.16
769.848	26.59
770.287	27.1
770.726	27.06
771.165	26.85
771.604	27.1
772.043	27.07
772.482	27.64
772.92	26.57
773.359	27.33
773.798	27.33
774.237	27.93
774.675	27.49
775.114	27.46
775.553	26.97
775.991	27.2
776.43	27.2
776.868	26.86
777.307	26.92
777.745	27.26
778.184	27.66
778.622	27.42
779.06	26.61
779.499	27.38
779.937	27.8
780.375	26.88
780.814	27.21
781.252	27.19
781.69	27.69
782.128	26.4
782.566	27.38
783.004	27.6
783.443	27.11
783.881	27.16
784.319	26.72
784.757	27.66
785.195	27.56
785.633	27.61
786.071	26.73
786.508	27.21
786.946	26.4
787.384	27.47
787.822	27.14
788.26	26.73
788.697	26.46
789.135	27.25
789.573	26.97
790.011	27.19
790.448	27.72
790.886	27.45
791.323	26.67
791.761	27.14
792.198	27.11
792.636	27.18
793.073	27.4
793.511	27.48
793.948	27.37
794.386	27.16
794.823	27.72
795.26	27.58
795.698	27.16
796.135	27.36
796.572	27.16
797.009	27.31
797.446	27.14
797.884	26.99
798.321	27.41
798.758	26.95
799.195	26.95
799.632	27.53
800.069	27.23
800.506	27.4
800.943	27.36
801.38	27.17
801.817	27.36
802.254	27.91
802.69	27
803.127	27.35
803.564	27.02
804.001	27.22
804.438	26.88
804.874	27.52
805.311	27.2
805.748	27.21
806.184	27.54
806.621	27.24
807.057	27.54
807.494	27.28
807.93	27.45
808.367	27.64
808.803	27.64
809.24	27.27
809.676	27.93
810.112	27.52
810.549	27.86
810.985	27.73
811.421	26.87
