Data from JCR0033_WhiteVentral_Reflection_00002.txt Node
Date: Fri Jul 31 15:01:08 ACST 2020
User: Stacey Dix
Spectrometer: MAYP113282
Scans to average: 1
Trigger mode: 0
Integration Time (sec): 1.000000E-1
Electric dark correction enabled: true
Boxcar width: 0
XAxis mode: Wavelengths
Number of Pixels in Spectrum: 2068
>>>>>Begin Spectral Data<<<<<
198.791	0
199.266	44.44
199.74	-33.33
200.215	-366.67
200.69	42.14
201.164	4.4
201.639	12.44
202.114	13.82
202.588	17.48
203.063	29.59
203.537	10.96
204.012	23.11
204.486	21.18
204.961	36.94
205.435	13.69
205.909	27.51
206.384	30.22
206.858	0.44
207.332	-4.17
207.807	12.89
208.281	11.3
208.755	5.51
209.229	23.98
209.703	-0.61
210.177	2.51
210.651	17.01
211.126	20.25
211.6	13.71
212.074	14.69
212.548	33.06
213.021	17.54
213.495	16.45
213.969	19.05
214.443	12.85
214.917	10.23
215.391	17.64
215.864	10.14
216.338	12.47
216.812	16.83
217.286	10.59
217.759	12.06
218.233	6.23
218.706	6.73
219.18	4.87
219.654	16.13
220.127	18.8
220.6	7.73
221.074	5.49
221.547	5.86
222.021	14.65
222.494	14.74
222.967	6.97
223.441	2.71
223.914	14.34
224.387	8.06
224.86	10.23
225.334	5.53
225.807	6.5
226.28	7.7
226.753	5.55
227.226	7.53
227.699	3.19
228.172	5.32
228.645	5.39
229.118	5.57
229.591	4.55
230.064	3.64
230.537	4.78
231.01	3.26
231.482	3.63
231.955	7.56
232.428	4.81
232.901	6.31
233.373	3.77
233.846	3.46
234.319	5.34
234.791	3.12
235.264	4.05
235.736	4.95
236.209	5.84
236.681	2.66
237.154	4.84
237.626	4.23
238.099	3.51
238.571	5.32
239.044	4.12
239.516	3.36
239.988	4.11
240.46	4.5
240.933	3.8
241.405	3.56
241.877	4.63
242.349	4.14
242.821	4.57
243.293	4.15
243.765	3.19
244.237	3.07
244.71	3.86
245.181	4.06
245.653	3.91
246.125	3.85
246.597	3.35
247.069	4.22
247.541	4.24
248.013	4.99
248.485	4.39
248.956	3.75
249.428	3.75
249.9	3.08
250.371	4.1
250.843	4.05
251.315	3.28
251.786	3.9
252.258	3.91
252.729	3.19
253.201	3.67
253.672	2.64
254.144	3.78
254.615	3.1
255.086	3.54
255.558	3.76
256.029	3.35
256.5	3.47
256.972	2.61
257.443	2.86
257.914	2.95
258.385	3.13
258.856	2.82
259.327	3.03
259.799	3.55
260.27	3.53
260.741	2.83
261.212	3.3
261.683	2.75
262.154	3.2
262.624	3.01
263.095	3.03
263.566	3.04
264.037	3.45
264.508	2.88
264.979	3.03
265.449	3.01
265.92	2.93
266.391	2.49
266.861	2.28
267.332	2.51
267.803	2.77
268.273	2.88
268.744	2.77
269.214	3.04
269.685	2.74
270.155	2.9
270.626	3.42
271.096	2.75
271.566	3.12
272.037	2.79
272.507	2.82
272.977	3.49
273.448	3.39
273.918	1.77
274.388	2.17
274.858	2.83
275.328	2.84
275.798	2.44
276.268	2.53
276.738	2.44
277.208	3.17
277.678	3.52
278.148	3.16
278.618	3.02
279.088	2.51
279.558	2.35
280.028	2.85
280.498	3.14
280.968	2.65
281.437	2.58
281.907	3.5
282.377	2.47
282.847	2.76
283.316	2.47
283.786	3.16
284.255	2.72
284.725	2.78
285.194	2.48
285.664	3.39
286.133	2.68
286.603	2.92
287.072	2.66
287.542	2.86
288.011	2.28
288.48	2.94
288.95	2.29
289.419	3.16
289.888	2.52
290.357	2.92
290.827	2.48
291.296	2.55
291.765	2.71
292.234	3.1
292.703	2.95
293.172	3.09
293.641	2.46
294.11	2.82
294.579	2.74
295.048	2.18
295.517	3.13
295.986	2.34
296.455	3.27
296.923	3.46
297.392	3.16
297.861	3.44
298.33	3.28
298.798	2.36
299.267	2.62
299.736	2.48
300.204	3.34
300.673	2.93
301.141	3.56
301.61	3.36
302.079	3.66
302.547	2.18
303.015	2.79
303.484	2.88
303.952	3.37
304.421	3.1
304.889	2.76
305.357	2.93
305.825	3.54
306.294	2.9
306.762	2.65
307.23	2.82
307.698	2.64
308.166	3.05
308.634	3.39
309.103	2.81
309.571	2.88
310.039	3.81
310.507	3.03
310.975	3.83
311.442	3.58
311.91	2.9
312.378	3.11
312.846	3.11
313.314	2.78
313.782	3.39
314.249	2.75
314.717	2.99
315.185	3.08
315.652	2.24
316.12	3.18
316.588	3.15
317.055	2.9
317.523	2.94
317.99	3.27
318.458	2.53
318.925	2.88
319.393	3.16
319.86	3.7
320.328	4.23
320.795	3.73
321.262	3.07
321.73	4.61
322.197	4.79
322.664	4.64
323.131	5.08
323.598	5.25
324.066	5.12
324.533	6.19
325	5.85
325.467	6.17
325.934	7.46
326.401	7.34
326.868	7.32
327.335	9.07
327.802	9.13
328.269	8.55
328.735	9.74
329.202	10.38
329.669	11.25
330.136	10.49
330.603	12.01
331.069	12.43
331.536	12.33
332.003	13.12
332.469	12.61
332.936	13.94
333.402	13.26
333.869	14.22
334.336	13.8
334.802	14.01
335.268	13.97
335.735	15.31
336.201	14.84
336.668	15.49
337.134	15.59
337.6	14.41
338.067	14.34
338.533	14.91
338.999	13.35
339.465	14.27
339.931	13.95
340.398	14.61
340.864	14.48
341.33	14.41
341.796	14.8
342.262	13.93
342.728	13.86
343.194	15.14
343.66	14.96
344.126	14.46
344.592	14.29
345.057	13.76
345.523	14.13
345.989	13.72
346.455	13.96
346.921	14.56
347.386	14.9
347.852	15.92
348.318	14.27
348.783	15.04
349.249	14.26
349.714	13.63
350.18	14.05
350.645	14.45
351.111	14.85
351.576	14.95
352.042	15.04
352.507	14.27
352.973	13.3
353.438	13.12
353.903	13.71
354.369	14.47
354.834	13.78
355.299	13.75
355.764	13.96
356.229	14.63
356.695	13.33
357.16	13.8
357.625	13.59
358.09	14.46
358.555	13.84
359.02	14.62
359.485	14.26
359.95	15.11
360.415	14.97
360.879	14.14
361.344	12.95
361.809	14.78
362.274	14.47
362.739	14.01
363.203	14.7
363.668	15.25
364.133	13.05
364.597	14.64
365.062	13.84
365.527	14.04
365.991	14.22
366.456	13.96
366.92	13.54
367.385	15.18
367.849	15.79
368.314	15.09
368.778	13.34
369.242	13.33
369.707	15.04
370.171	14.97
370.635	14.84
371.1	15.49
371.564	13
372.028	15.31
372.492	14.45
372.956	14.55
373.42	15.13
373.884	14.6
374.348	14.49
374.812	14.54
375.276	14.06
375.74	15.55
376.204	14.14
376.668	13.94
377.132	15.05
377.596	13.98
378.06	14.78
378.524	14.63
378.987	15.77
379.451	14.52
379.915	13.84
380.378	15.18
380.842	14.5
381.306	15.84
381.769	14.8
382.233	14.95
382.696	15.15
383.16	15.35
383.623	14.04
384.087	15.12
384.55	15.37
385.014	15.21
385.477	13.93
385.94	15.19
386.404	15.5
386.867	15.41
387.33	14.17
387.793	15.34
388.256	16.31
388.72	15.03
389.183	14.92
389.646	14.8
390.109	15.27
390.572	15.52
391.035	14.84
391.498	15.37
391.961	13.88
392.424	14.93
392.887	14.45
393.35	13.97
393.812	14.56
394.275	15.28
394.738	15.08
395.201	14.98
395.664	14.76
396.126	13.87
396.589	14.31
397.052	15.15
397.514	15.23
397.977	13.18
398.439	14.62
398.902	14.29
399.364	14.9
399.827	14.25
400.289	13.63
400.752	13.67
401.214	14.09
401.676	15.16
402.139	14.86
402.601	14.22
403.063	14.08
403.525	15.81
403.988	14.81
404.45	13.6
404.912	14.72
405.374	15.03
405.836	12.5
406.298	14.24
406.76	13.03
407.222	13.42
407.684	13.9
408.146	13.28
408.608	12.73
409.07	13.22
409.532	13.23
409.994	13.57
410.456	14.44
410.917	13.11
411.379	13.5
411.841	13.93
412.303	13.51
412.764	13.01
413.226	13.52
413.687	13.99
414.149	13.96
414.611	14.35
415.072	13.82
415.534	14.12
415.995	14.02
416.457	13.86
416.918	14.22
417.379	14.28
417.841	14.63
418.302	13.97
418.763	14.88
419.225	16.07
419.686	14.54
420.147	14.13
420.608	15.2
421.069	15.06
421.53	15.2
421.991	15.21
422.453	15.43
422.914	15.52
423.375	16.05
423.836	16.7
424.297	15.38
424.757	15.9
425.218	15.75
425.679	16.11
426.14	15.84
426.601	14.79
427.062	15.86
427.522	16.46
427.983	16.37
428.444	16.43
428.904	16.67
429.365	15.7
429.826	16.86
430.286	16.96
430.747	20.55
431.207	16.27
431.668	16.71
432.128	17.45
432.589	17.63
433.049	17.68
433.509	17.81
433.97	19.04
434.43	15.64
434.89	17.65
435.351	18.67
435.811	18.15
436.271	15.79
436.731	16.92
437.191	16.71
437.651	18.77
438.112	18.07
438.572	18.59
439.032	16.16
439.492	18.16
439.952	17.67
440.412	19.21
440.871	18.3
441.331	17.61
441.791	19.58
442.251	17.48
442.711	16.93
443.171	20.1
443.63	19.11
444.09	19.22
444.55	18.08
445.009	18.91
445.469	17.52
445.929	17.47
446.388	19.48
446.848	18.19
447.307	17.99
447.767	17.89
448.226	19.67
448.686	17.56
449.145	20.25
449.604	18.97
450.064	18.93
450.523	17.99
450.982	19.68
451.442	18.88
451.901	19.21
452.36	20.52
452.819	17.41
453.278	19.56
453.737	18.73
454.197	19.45
454.656	18.23
455.115	19.48
455.574	18.81
456.033	18.23
456.492	19.91
456.95	19.55
457.409	20.43
457.868	20.5
458.327	20.13
458.786	19.17
459.245	20.31
459.703	18.51
460.162	20.12
460.621	20.93
461.079	18.4
461.538	18.65
461.997	19.04
462.455	20.13
462.914	19.31
463.372	19.1
463.831	20
464.289	19.09
464.748	19.79
465.206	20.84
465.664	20.53
466.123	19.4
466.581	19.04
467.039	21.03
467.497	20.23
467.956	19.48
468.414	20.51
468.872	18.95
469.33	21.98
469.788	20.74
470.246	21.38
470.704	19.35
471.162	21.25
471.62	20.64
472.078	20.88
472.536	19.44
472.994	19.63
473.452	19.43
473.91	18.93
474.368	20.93
474.826	19.91
475.283	18.77
475.741	19.18
476.199	19.69
476.656	18.92
477.114	20.04
477.572	20.37
478.029	19.03
478.487	20.21
478.944	19.75
479.402	18.25
479.859	19.63
480.317	20.58
480.774	19.05
481.232	20.73
481.689	20.22
482.146	20.01
482.604	18.63
483.061	18.16
483.518	19.04
483.975	18.47
484.433	20.37
484.89	19.73
485.347	20.71
485.804	20.16
486.261	20.52
486.718	20.63
487.175	20.86
487.632	20.94
488.089	19.61
488.546	19.22
489.003	17.36
489.46	20.1
489.917	19.66
490.373	18.23
490.83	18.76
491.287	20.51
491.744	21
492.2	21.36
492.657	20.08
493.114	18.32
493.57	20.21
494.027	19.88
494.484	19.8
494.94	20.78
495.397	19.41
495.853	20.55
496.31	18.68
496.766	17.2
497.222	19.25
497.679	18.69
498.135	20.53
498.591	18.94
499.048	20.21
499.504	21.26
499.96	19.92
500.416	19.44
500.872	19.1
501.329	21.18
501.785	19.73
502.241	20.48
502.697	19.83
503.153	18.88
503.609	20.93
504.065	18.74
504.521	19.95
504.977	20.12
505.432	19.25
505.888	20.94
506.344	19.88
506.8	19.39
507.256	20.16
507.711	18.66
508.167	19.2
508.623	20.7
509.078	19.44
509.534	20.19
509.99	20.13
510.445	19.11
510.901	20.84
511.356	18.76
511.812	18.65
512.267	20.48
512.722	21.13
513.178	20.04
513.633	20.01
514.089	21.57
514.544	21.27
514.999	21.04
515.454	19.11
515.91	20.34
516.365	22.23
516.82	21.49
517.275	18.93
517.73	20
518.185	19.24
518.64	20.85
519.095	21.18
519.55	20.45
520.005	19.65
520.46	19.39
520.915	21.09
521.37	18.8
521.825	20.8
522.28	21.44
522.734	21.18
523.189	20.44
523.644	20.15
524.099	19.36
524.553	19.57
525.008	19.3
525.462	20.97
525.917	19.83
526.372	19.31
526.826	20.5
527.281	21.7
527.735	20.91
528.19	18.73
528.644	21.54
529.098	20.28
529.553	20.99
530.007	19.78
530.461	21.19
530.916	21.47
531.37	19.95
531.824	19.94
532.278	20.12
532.732	20.29
533.186	19.51
533.641	21.42
534.095	21.08
534.549	21.31
535.003	20.15
535.457	19.43
535.911	22.69
536.365	21.67
536.818	22.17
537.272	21.6
537.726	21.72
538.18	22.26
538.634	21.71
539.087	19.78
539.541	20.33
539.995	21.54
540.449	20.91
540.902	22.17
541.356	20.69
541.809	21.74
542.263	20.87
542.716	21.59
543.17	20.2
543.623	21.22
544.077	22.72
544.53	21.03
544.984	20.22
545.437	21.94
545.89	22.18
546.344	23.07
546.797	21.76
547.25	22.27
547.703	21.11
548.157	20.77
548.61	21.36
549.063	23.85
549.516	20.98
549.969	22.53
550.422	22.21
550.875	21.98
551.328	23.01
551.781	23.78
552.234	21.38
552.687	22.42
553.14	23.42
553.592	21.47
554.045	22.82
554.498	21.41
554.951	21.38
555.404	21.48
555.856	20.99
556.309	21.38
556.762	22.06
557.214	22.56
557.667	19.83
558.119	22.4
558.572	22.65
559.024	22.33
559.477	22.96
559.929	22.48
560.382	21.68
560.834	21.68
561.286	22.17
561.739	24.04
562.191	21.6
562.643	21.76
563.095	23.25
563.548	23.57
564	23.2
564.452	21.06
564.904	20.95
565.356	21.52
565.808	22.87
566.26	22.48
566.712	23.16
567.164	23.24
567.616	22.32
568.068	23.07
568.52	22.18
568.972	22.28
569.424	22.93
569.876	23.18
570.327	22.68
570.779	22.37
571.231	23.39
571.682	23.92
572.134	23.18
572.586	21.97
573.037	22.9
573.489	22.77
573.941	23.58
574.392	22.85
574.844	22.8
575.295	24.28
575.746	23.35
576.198	22.74
576.649	22.63
577.101	23.81
577.552	23.93
578.003	22.16
578.454	22.7
578.906	23.09
579.357	23.64
579.808	23.76
580.259	23.79
580.71	23.43
581.161	22.95
581.612	22.88
582.064	23.65
582.515	23.21
582.965	22.89
583.416	22.87
583.867	22.92
584.318	23.39
584.769	23.56
585.22	22.83
585.671	23.12
586.122	23.65
586.572	23.18
587.023	23.56
587.474	21.75
587.924	23.16
588.375	23.11
588.826	24.09
589.276	23.86
589.727	22.6
590.177	23.41
590.628	23.08
591.078	23.01
591.529	23
591.979	22.22
592.429	23.17
592.88	22.66
593.33	22.9
593.78	22.4
594.231	24.96
594.681	24.12
595.131	22.78
595.581	22.39
596.031	23.14
596.481	24.11
596.932	23.94
597.382	23.06
597.832	23.73
598.282	23.44
598.732	23.69
599.182	23.42
599.632	22.69
600.081	23.7
600.531	23.59
600.981	22.92
601.431	23.67
601.881	23.17
602.33	23.5
602.78	23.23
603.23	24.64
603.679	23.84
604.129	23.62
604.579	23.59
605.028	23.27
605.478	23.06
605.927	23.04
606.377	23.63
606.826	23.71
607.276	23.45
607.725	23.58
608.175	24.13
608.624	23.56
609.073	22.95
609.522	23.27
609.972	23.55
610.421	23.19
610.87	23.7
611.319	23.7
611.768	23.85
612.218	23.4
612.667	23.33
613.116	24.01
613.565	23.46
614.014	24
614.463	24.52
614.912	23.44
615.361	24.19
615.81	23.8
616.258	24.25
616.707	23.58
617.156	24.23
617.605	23.91
618.054	23.84
618.502	23.59
618.951	23.04
619.4	23.67
619.848	24.05
620.297	23.31
620.745	23.74
621.194	24.45
621.642	23.63
622.091	23.04
622.539	24.25
622.988	23.79
623.436	22.16
623.885	23.49
624.333	22.88
624.781	23.52
625.23	23.37
625.678	24.13
626.126	23.76
626.574	22.7
627.022	23.03
627.471	23.31
627.919	23.13
628.367	23.36
628.815	23.59
629.263	23.69
629.711	22.77
630.159	23.35
630.607	22.7
631.055	23.66
631.503	23.78
631.95	23.68
632.398	23.44
632.846	23.77
633.294	23.56
633.742	23.9
634.189	23.8
634.637	22.85
635.085	23.83
635.532	23.99
635.98	24.01
636.427	23.47
636.875	23.88
637.323	24.29
637.77	23.81
638.217	24.11
638.665	22.72
639.112	24.18
639.56	23.53
640.007	23.49
640.454	23.8
640.902	24.16
641.349	24.14
641.796	23.83
642.243	24.52
642.69	23.22
643.138	23.67
643.585	24.09
644.032	23.72
644.479	24.23
644.926	23.74
645.373	23.82
645.82	24.76
646.267	24.5
646.714	24.2
647.161	24.02
647.607	24.15
648.054	23.88
648.501	23.58
648.948	24.18
649.395	23.78
649.841	23.93
650.288	23.84
650.735	23.89
651.181	23.29
651.628	23.68
652.075	24.24
652.521	24.33
652.968	24.7
653.414	23.77
653.861	24.47
654.307	23.86
654.753	23.78
655.2	24.37
655.646	23.56
656.092	25.09
656.539	23.92
656.985	24.32
657.431	24.32
657.877	23.86
658.324	23.87
658.77	24.86
659.216	24.66
659.662	23.69
660.108	24.19
660.554	24.08
661	25.32
661.446	24.09
661.892	23.87
662.338	24.77
662.784	24.12
663.23	24.2
663.675	24.66
664.121	24.11
664.567	24.89
665.013	24.09
665.458	24.44
665.904	24.55
666.35	23.67
666.795	23.96
667.241	25.09
667.687	25.07
668.132	23.96
668.578	24.68
669.023	24.2
669.469	23.35
669.914	24.15
670.359	24.59
670.805	24.4
671.25	24.64
671.695	23.64
672.141	24.19
672.586	24.17
673.031	24.73
673.476	24.68
673.922	24.64
674.367	24.27
674.812	24.89
675.257	24.5
675.702	24.62
676.147	24.74
676.592	23.82
677.037	23.85
677.482	24.39
677.927	24.85
678.372	24.31
678.817	24.08
679.261	24.76
679.706	24.36
680.151	24.4
680.596	25.42
681.04	24.17
681.485	24.82
681.93	24.68
682.374	24.75
682.819	23.96
683.264	24.23
683.708	24.94
684.153	24.96
684.597	24.76
685.042	24.29
685.486	24.11
685.93	24.18
686.375	23.71
686.819	25.4
687.263	24.93
687.708	24.57
688.152	24.89
688.596	25.08
689.04	24.69
689.485	24.92
689.929	24.98
690.373	24.65
690.817	24.52
691.261	24.34
691.705	24.92
692.149	24.76
692.593	24.76
693.037	24.43
693.481	24.11
693.925	24.19
694.369	24.66
694.812	24.43
695.256	24.85
695.7	24.62
696.144	24.57
696.587	23.84
697.031	24.32
697.475	24.43
697.918	24.37
698.362	25
698.806	24.72
699.249	24.75
699.693	24.63
700.136	24.53
700.58	24.52
701.023	24.36
701.466	24.28
701.91	25.44
702.353	24.4
702.796	24.77
703.24	24.47
703.683	24.42
704.126	24.89
704.569	24.44
705.013	24
705.456	24.5
705.899	24.1
706.342	24.71
706.785	23.9
707.228	24.97
707.671	24.44
708.114	25.05
708.557	24.48
709	24.8
709.443	24.88
709.886	24.84
710.328	23.93
710.771	24.28
711.214	24.37
711.657	25.25
712.099	24.61
712.542	24.16
712.985	24.36
713.427	24.67
713.87	25.39
714.313	24.6
714.755	24.76
715.198	25.05
715.64	24.15
716.083	25.05
716.525	24.67
716.967	24.68
717.41	24.37
717.852	24.54
718.295	24.61
718.737	24.12
719.179	24.53
719.621	24.84
720.063	24.71
720.506	24.82
720.948	24.46
721.39	24.76
721.832	23.98
722.274	25.13
722.716	24.36
723.158	24.41
723.6	24.65
724.042	24.39
724.484	23.69
724.926	24.55
725.368	24.23
725.81	24.71
726.251	24.06
726.693	24.72
727.135	24.5
727.577	24.26
728.018	24.58
728.46	24.77
728.902	24.59
729.343	24.47
729.785	24.28
730.226	24.69
730.668	24.32
731.109	24.67
731.551	24.38
731.992	24.92
732.434	24.28
732.875	24.66
733.316	25.3
733.758	23.16
734.199	25.05
734.64	24.44
735.081	25.43
735.523	24.54
735.964	24.59
736.405	25.04
736.846	24.67
737.287	24.27
737.728	23.82
738.169	24.66
738.61	24.87
739.051	24.74
739.492	24.38
739.933	24.4
740.374	24.73
740.815	25.08
741.256	24.64
741.696	24.68
742.137	24.25
742.578	24.69
743.019	24.73
743.459	24.56
743.9	23.79
744.341	24.74
744.781	24.41
745.222	24.33
745.662	24.01
746.103	24.74
746.543	24.22
746.984	24.74
747.424	24.53
747.865	24.48
748.305	24.12
748.745	24.57
749.186	24.92
749.626	24.07
750.066	24.31
750.506	24.1
750.947	24.84
751.387	24.3
751.827	24.58
752.267	23.89
752.707	24.4
753.147	24.51
753.587	23.86
754.027	24.82
754.467	24.2
754.907	24.6
755.347	24.83
755.787	23.74
756.227	24.55
756.667	24.92
757.107	24.55
757.546	24.86
757.986	24.13
758.426	24.74
758.865	24.57
759.305	24.66
759.745	24.36
760.184	24.35
760.624	24.37
761.063	24.37
761.503	24.58
761.943	24.03
762.382	25.06
762.821	24.52
763.261	24.8
763.7	24.73
764.14	24.36
764.579	24.04
765.018	24.66
765.457	24.74
765.897	23.99
766.336	24.82
766.775	25.12
767.214	24.37
767.653	24.57
768.092	25.18
768.531	24.12
768.97	24.44
769.409	24.36
769.848	24.55
770.287	24.84
770.726	24.72
771.165	24.61
771.604	24.49
772.043	24.33
772.482	24.54
772.92	24.75
773.359	25.03
773.798	24.6
774.237	24.08
774.675	24.65
775.114	24.43
775.553	25
775.991	24.86
776.43	24.89
776.868	24.29
777.307	24.25
777.745	24.49
778.184	24.41
778.622	23.97
779.06	24.42
779.499	24.92
779.937	24.66
780.375	24.19
780.814	25.06
781.252	24.65
781.69	23.85
782.128	24.4
782.566	24.28
783.004	24.63
783.443	24.39
783.881	24.89
784.319	24.22
784.757	24.56
785.195	24.4
785.633	24.79
786.071	24.8
786.508	24.97
786.946	24.49
787.384	24.61
787.822	24.82
788.26	24.66
788.697	24.4
789.135	24.26
789.573	24.92
790.011	24.97
790.448	24.26
790.886	24.88
791.323	25.21
791.761	24.07
792.198	24.66
792.636	24.7
793.073	24.32
793.511	25.01
793.948	25.12
794.386	24.49
794.823	24.46
795.26	24.68
795.698	24.28
796.135	24.47
796.572	24.67
797.009	24.66
797.446	25.01
797.884	24.31
798.321	24.37
798.758	24.84
799.195	24.74
799.632	25.06
800.069	25.11
800.506	24.79
800.943	25.07
801.38	24.81
801.817	24.95
802.254	25.09
802.69	24.46
803.127	24.6
803.564	24.47
804.001	24.74
804.438	24.97
804.874	24.31
805.311	24.81
805.748	24.59
806.184	24.45
806.621	24.81
807.057	24.72
807.494	24.71
807.93	24.6
808.367	24.59
808.803	25.08
809.24	25.03
809.676	24.56
810.112	24.54
810.549	24.34
810.985	24.71
811.421	24.04
