Data from JCR0027_WhiteVentral_Reflection_00001.txt Node
Date: Fri Jul 31 12:31:07 ACST 2020
User: Stacey Dix
Spectrometer: MAYP113282
Scans to average: 1
Trigger mode: 0
Integration Time (sec): 1.000000E-1
Electric dark correction enabled: true
Boxcar width: 0
XAxis mode: Wavelengths
Number of Pixels in Spectrum: 2068
>>>>>Begin Spectral Data<<<<<
198.791	90.91
199.266	87.5
199.74	80
200.215	200
200.69	32.49
201.164	27.87
201.639	65.52
202.114	36.18
202.588	45.2
203.063	43.43
203.537	35.56
204.012	44.98
204.486	12.2
204.961	44.75
205.435	18.58
205.909	47.54
206.384	28.43
206.858	8.09
207.332	34.57
207.807	35.91
208.281	31.76
208.755	33.99
209.229	21.88
209.703	24.91
210.177	40.23
210.651	26.69
211.126	36.27
211.6	28.74
212.074	29.47
212.548	32.07
213.021	15.25
213.495	48.42
213.969	30.11
214.443	23.04
214.917	36.12
215.391	23.04
215.864	10.29
216.338	18.68
216.812	22.67
217.286	32.86
217.759	25.44
218.233	20.52
218.706	12.99
219.18	24.27
219.654	16.35
220.127	18.08
220.6	15.48
221.074	22.39
221.547	17.27
222.021	26.46
222.494	15.03
222.967	15.15
223.441	17.69
223.914	18.87
224.387	9.84
224.86	18.23
225.334	19.85
225.807	14.24
226.28	16.36
226.753	11.12
227.226	13.88
227.699	9.67
228.172	10.1
228.645	14.46
229.118	8.46
229.591	14
230.064	11.42
230.537	12.44
231.01	8.38
231.482	8.41
231.955	8.34
232.428	10.16
232.901	9.01
233.373	7.21
233.846	9.13
234.319	7.95
234.791	8.41
235.264	8.88
235.736	7.63
236.209	7.69
236.681	7.95
237.154	9.19
237.626	9.28
238.099	9.13
238.571	7.89
239.044	10
239.516	8.37
239.988	7.62
240.46	8.14
240.933	6.68
241.405	8.81
241.877	8.13
242.349	9.06
242.821	8.24
243.293	7.49
243.765	8.41
244.237	8.48
244.71	9
245.181	7.83
245.653	8.14
246.125	8.38
246.597	9.23
247.069	6.91
247.541	8.93
248.013	9.06
248.485	7.73
248.956	8.2
249.428	7.01
249.9	7.15
250.371	6.54
250.843	8.09
251.315	8.32
251.786	7.04
252.258	6.64
252.729	7.48
253.201	7.28
253.672	6.53
254.144	7.08
254.615	6.68
255.086	7.64
255.558	6.75
256.029	7.5
256.5	7.33
256.972	7.47
257.443	6.78
257.914	6.87
258.385	6.19
258.856	6.7
259.327	6.91
259.799	6.75
260.27	7.01
260.741	6.87
261.212	6.92
261.683	6.9
262.154	7.26
262.624	6.69
263.095	6.7
263.566	6.14
264.037	6.91
264.508	6.01
264.979	6.46
265.449	6.15
265.92	6.29
266.391	6.73
266.861	7.08
267.332	6.86
267.803	7.19
268.273	6.63
268.744	6.13
269.214	7.05
269.685	6.63
270.155	7
270.626	6.93
271.096	6.33
271.566	8.07
272.037	6.96
272.507	7.67
272.977	7.06
273.448	6.41
273.918	6.19
274.388	5.79
274.858	6.41
275.328	7.28
275.798	6.18
276.268	6.28
276.738	6.19
277.208	6.31
277.678	6.26
278.148	6.75
278.618	5.73
279.088	6.23
279.558	6.83
280.028	5.87
280.498	6.03
280.968	6.98
281.437	6.35
281.907	6.3
282.377	5.74
282.847	5.98
283.316	5.56
283.786	5.92
284.255	7.05
284.725	6.04
285.194	5.94
285.664	6.36
286.133	6.11
286.603	5.76
287.072	6.39
287.542	5.77
288.011	6.4
288.48	6.3
288.95	6.48
289.419	6.23
289.888	5.84
290.357	6.88
290.827	5.84
291.296	6.79
291.765	5.48
292.234	6.26
292.703	5.9
293.172	6.87
293.641	6.05
294.11	7.01
294.579	6.45
295.048	6.47
295.517	6.09
295.986	7.07
296.455	7.14
296.923	7.53
297.392	6.19
297.861	6.89
298.33	6.67
298.798	6.4
299.267	6.91
299.736	6.62
300.204	7.06
300.673	7.99
301.141	6.87
301.61	7.05
302.079	6.22
302.547	7.24
303.015	6.22
303.484	7.13
303.952	6.87
304.421	6.92
304.889	7.04
305.357	7.47
305.825	7.48
306.294	7.62
306.762	7.48
307.23	8.18
307.698	7.19
308.166	7.26
308.634	7.21
309.103	7.3
309.571	8.01
310.039	7.8
310.507	7.54
310.975	6.96
311.442	7.18
311.91	6.88
312.378	8.48
312.846	7.91
313.314	7.62
313.782	8.56
314.249	7.39
314.717	8.1
315.185	7.49
315.652	7.36
316.12	7.29
316.588	7.17
317.055	8.09
317.523	8.72
317.99	8.66
318.458	8.01
318.925	7.68
319.393	7.29
319.86	8.39
320.328	7.64
320.795	8.22
321.262	8.3
321.73	7.81
322.197	8.68
322.664	8.33
323.131	9.47
323.598	9
324.066	9.04
324.533	9.62
325	10.3
325.467	10.28
325.934	10.39
326.401	11.05
326.868	11.36
327.335	11.31
327.802	11.32
328.269	12.17
328.735	12.25
329.202	12.32
329.669	13.52
330.136	13.25
330.603	13.6
331.069	13.06
331.536	13.59
332.003	15.17
332.469	13.96
332.936	14.14
333.402	14.3
333.869	14.54
334.336	15.89
334.802	15.6
335.268	15.11
335.735	16.35
336.201	15.96
336.668	16.77
337.134	15.4
337.6	16.21
338.067	15.96
338.533	15.4
338.999	16.3
339.465	15.36
339.931	16.85
340.398	16.44
340.864	15.67
341.33	16.71
341.796	17.57
342.262	17.1
342.728	16.85
343.194	17.5
343.66	16
344.126	16.19
344.592	17.11
345.057	16.26
345.523	16.4
345.989	17.31
346.455	17.57
346.921	17.44
347.386	18.34
347.852	17.79
348.318	17.22
348.783	18.09
349.249	16.86
349.714	16.26
350.18	17.61
350.645	18.22
351.111	16.8
351.576	16.78
352.042	18.02
352.507	18.25
352.973	17.07
353.438	17.54
353.903	18.81
354.369	16.47
354.834	17.49
355.299	17.41
355.764	17.08
356.229	18.17
356.695	18.06
357.16	17.65
357.625	17.69
358.09	18.9
358.555	17.98
359.02	17.1
359.485	17.85
359.95	18.02
360.415	16.65
360.879	18.56
361.344	17.75
361.809	19.41
362.274	17.99
362.739	18.21
363.203	18.05
363.668	18.2
364.133	18.96
364.597	18.98
365.062	18.35
365.527	20.56
365.991	19.45
366.456	18.18
366.92	19.38
367.385	18.75
367.849	18.98
368.314	19.41
368.778	20.04
369.242	20.2
369.707	19.66
370.171	20.18
370.635	19.38
371.1	19.71
371.564	18.96
372.028	19.59
372.492	19.87
372.956	19.4
373.42	19.86
373.884	18.68
374.348	19.37
374.812	19.74
375.276	20.1
375.74	20.19
376.204	19.63
376.668	18.75
377.132	20.67
377.596	18.73
378.06	20.76
378.524	19.42
378.987	20.29
379.451	21.51
379.915	20.56
380.378	20.52
380.842	20.67
381.306	21.55
381.769	19.99
382.233	20.89
382.696	20.33
383.16	19.66
383.623	20.73
384.087	21.13
384.55	21.48
385.014	20.31
385.477	21.13
385.94	21.09
386.404	21.37
386.867	21.03
387.33	21.68
387.793	22.57
388.256	21.4
388.72	21.51
389.183	20.64
389.646	21.67
390.109	22.21
390.572	22.25
391.035	21.63
391.498	22.07
391.961	21.39
392.424	21.83
392.887	22.56
393.35	21.2
393.812	22.53
394.275	21.35
394.738	22.76
395.201	22.28
395.664	20.76
396.126	22.46
396.589	22.64
397.052	21.94
397.514	21.78
397.977	22.84
398.439	22.35
398.902	23.04
399.364	22.88
399.827	21.16
400.289	21.95
400.752	22.91
401.214	23.2
401.676	23.04
402.139	23.27
402.601	21.4
403.063	21.51
403.525	22.86
403.988	22.27
404.45	22.34
404.912	22.22
405.374	23.32
405.836	22.58
406.298	22.85
406.76	22
407.222	22.62
407.684	23.32
408.146	24.26
408.608	21.43
409.07	22.6
409.532	21.3
409.994	22.53
410.456	24.8
410.917	24.03
411.379	22.01
411.841	22.78
412.303	22.69
412.764	23.75
413.226	22.67
413.687	23.06
414.149	22.75
414.611	22.58
415.072	23.08
415.534	24.11
415.995	22.52
416.457	22.74
416.918	22.23
417.379	23.84
417.841	23.37
418.302	23.57
418.763	22.51
419.225	22.93
419.686	25.54
420.147	22.44
420.608	24.27
421.069	25.01
421.53	22.77
421.991	23.17
422.453	23.71
422.914	24.44
423.375	22.93
423.836	23.34
424.297	22.77
424.757	23.9
425.218	23.63
425.679	24.53
426.14	24.71
426.601	23.21
427.062	23.9
427.522	21.46
427.983	25.24
428.444	23.27
428.904	23.88
429.365	23.62
429.826	24.62
430.286	25.42
430.747	22.29
431.207	23.36
431.668	25.25
432.128	25.36
432.589	23.86
433.049	24.64
433.509	24.15
433.97	24.32
434.43	24.94
434.89	22.79
435.351	24.54
435.811	24.47
436.271	26.2
436.731	26.88
437.191	25.07
437.651	25.91
438.112	27.03
438.572	24.64
439.032	24.36
439.492	25.41
439.952	26.23
440.412	26.61
440.871	25.58
441.331	24.35
441.791	27.95
442.251	25.04
442.711	23.27
443.171	24.79
443.63	24.15
444.09	26.67
444.55	26.77
445.009	24.91
445.469	24.73
445.929	26.75
446.388	25.56
446.848	23.53
447.307	26.4
447.767	24.83
448.226	26.13
448.686	27.12
449.145	24.13
449.604	25.38
450.064	25.74
450.523	27.94
450.982	25.23
451.442	25.2
451.901	28.69
452.36	25.55
452.819	24.15
453.278	25.16
453.737	26.48
454.197	26.8
454.656	24.98
455.115	25.88
455.574	26.21
456.033	26.23
456.492	26.84
456.95	25.79
457.409	26.98
457.868	24.3
458.327	27.81
458.786	25.07
459.245	29.63
459.703	25.75
460.162	26.98
460.621	25.24
461.079	25.7
461.538	25.73
461.997	26.61
462.455	24.65
462.914	26.8
463.372	27.96
463.831	24.34
464.289	25.64
464.748	28.82
465.206	27.87
465.664	27
466.123	24.73
466.581	25.49
467.039	27.61
467.497	26.48
467.956	28.33
468.414	26.7
468.872	27.37
469.33	26.06
469.788	25.63
470.246	27.2
470.704	27.07
471.162	26.29
471.62	28.87
472.078	25.7
472.536	27.84
472.994	24.56
473.452	25.29
473.91	28.54
474.368	25.93
474.826	29.41
475.283	28.84
475.741	25.95
476.199	26.05
476.656	27.49
477.114	26.39
477.572	27.21
478.029	26.76
478.487	27.57
478.944	27.29
479.402	26.57
479.859	25.58
480.317	27.98
480.774	27.96
481.232	27
481.689	27.2
482.146	26.79
482.604	25.28
483.061	26.53
483.518	26.85
483.975	27.7
484.433	27.6
484.89	28.67
485.347	28.08
485.804	28.59
486.261	30.45
486.718	29.35
487.175	27.22
487.632	28.5
488.089	26.55
488.546	28.55
489.003	27.53
489.46	29.59
489.917	27.75
490.373	27.47
490.83	28.89
491.287	27.81
491.744	25.93
492.2	26.03
492.657	26
493.114	27.69
493.57	26.76
494.027	29.27
494.484	25.73
494.94	27.83
495.397	28.05
495.853	29.45
496.31	29.34
496.766	29.1
497.222	29.03
497.679	26.14
498.135	27.69
498.591	26.72
499.048	28.21
499.504	29.31
499.96	29.29
500.416	27.74
500.872	26.59
501.329	27.29
501.785	26.97
502.241	26.1
502.697	28.24
503.153	27.78
503.609	26.83
504.065	27.39
504.521	27.23
504.977	32.03
505.432	25.97
505.888	27.24
506.344	27.08
506.8	28.44
507.256	28.44
507.711	25.74
508.167	28.62
508.623	26.86
509.078	29.65
509.534	27.32
509.99	27.88
510.445	27.11
510.901	27.09
511.356	27.66
511.812	27.16
512.267	28.16
512.722	27.37
513.178	29.36
513.633	28.89
514.089	27.5
514.544	28.26
514.999	26.92
515.454	29.13
515.91	27.52
516.365	27.85
516.82	26.45
517.275	28.89
517.73	27.01
518.185	26.74
518.64	27.59
519.095	27.34
519.55	28.35
520.005	28.13
520.46	26.59
520.915	27.38
521.37	28.5
521.825	28.42
522.28	26.08
522.734	28.47
523.189	27.31
523.644	27.93
524.099	28.18
524.553	28.33
525.008	27.04
525.462	31.3
525.917	28.87
526.372	28.28
526.826	26.12
527.281	29.55
527.735	27.16
528.19	28.25
528.644	29.9
529.098	27.76
529.553	27.03
530.007	27.88
530.461	27.87
530.916	27.65
531.37	26.49
531.824	28.79
532.278	28.8
532.732	30.02
533.186	28.04
533.641	28.5
534.095	28.53
534.549	28.33
535.003	29.78
535.457	30.28
535.911	28.07
536.365	29.46
536.818	27.09
537.272	29.29
537.726	30.34
538.18	28.48
538.634	27.8
539.087	30.1
539.541	29.37
539.995	28.29
540.449	29.3
540.902	29.12
541.356	29.63
541.809	28.24
542.263	28.2
542.716	27.28
543.17	27.87
543.623	28.14
544.077	27.68
544.53	28.19
544.984	27.52
545.437	28.19
545.89	28.98
546.344	28.59
546.797	28.79
547.25	29.5
547.703	29.7
548.157	26.78
548.61	30.3
549.063	28.61
549.516	28.91
549.969	29
550.422	27.83
550.875	28.92
551.328	29.23
551.781	28.84
552.234	29.31
552.687	29.65
553.14	28.58
553.592	27.67
554.045	29.11
554.498	28.23
554.951	29.03
555.404	28.87
555.856	30.46
556.309	29.31
556.762	29.58
557.214	29.13
557.667	28.55
558.119	30.2
558.572	26.87
559.024	31.39
559.477	30.4
559.929	28.79
560.382	29.2
560.834	30.34
561.286	28.61
561.739	30
562.191	29.87
562.643	29.43
563.095	29.2
563.548	28.83
564	28.96
564.452	28.54
564.904	28.74
565.356	30.17
565.808	29.53
566.26	29.19
566.712	29.77
567.164	29.38
567.616	28.3
568.068	28.9
568.52	29.12
568.972	28.97
569.424	29.12
569.876	28.81
570.327	29.69
570.779	29.48
571.231	29.3
571.682	28.78
572.134	28.82
572.586	30.36
573.037	28.93
573.489	29.9
573.941	30.36
574.392	29.01
574.844	28.94
575.295	30.24
575.746	29.18
576.198	29.29
576.649	28.78
577.101	29.94
577.552	30.37
578.003	30.33
578.454	27.92
578.906	28.92
579.357	29.51
579.808	29.74
580.259	29.46
580.71	30.24
581.161	30.23
581.612	29.07
582.064	29.39
582.515	28.88
582.965	29.81
583.416	28.89
583.867	29.37
584.318	30.33
584.769	29.55
585.22	31.27
585.671	30.66
586.122	29.18
586.572	28.47
587.023	30.12
587.474	29.57
587.924	30.99
588.375	29.35
588.826	28.77
589.276	28.91
589.727	29.64
590.177	28.86
590.628	29.81
591.078	29.71
591.529	28.62
591.979	30.62
592.429	30.12
592.88	30.89
593.33	29.38
593.78	28.53
594.231	28.2
594.681	28.84
595.131	29.07
595.581	30.74
596.031	29.14
596.481	29.33
596.932	30.47
597.382	30.34
597.832	28.23
598.282	29.16
598.732	30.11
599.182	28.77
599.632	30.59
600.081	28.39
600.531	30.82
600.981	31.49
601.431	28.91
601.881	29.48
602.33	28.59
602.78	30.1
603.23	30.7
603.679	29.89
604.129	28.73
604.579	29.65
605.028	29.77
605.478	29.97
605.927	30.05
606.377	29.55
606.826	30.08
607.276	30.54
607.725	28.61
608.175	28.73
608.624	29.38
609.073	30.67
609.522	29.72
609.972	28.68
610.421	30.23
610.87	30.07
611.319	29.33
611.768	29.84
612.218	30.11
612.667	29.84
613.116	30.28
613.565	30.26
614.014	28.27
614.463	29.46
614.912	30
615.361	29.43
615.81	30.86
616.258	30.08
616.707	29.85
617.156	29.82
617.605	29.41
618.054	29.86
618.502	29.14
618.951	29.89
619.4	28.77
619.848	30.07
620.297	28.92
620.745	30.99
621.194	29.66
621.642	30.7
622.091	27.97
622.539	29.05
622.988	30.29
623.436	29.66
623.885	29.92
624.333	29.64
624.781	29.74
625.23	30.04
625.678	31.49
626.126	29.35
626.574	30.23
627.022	29.21
627.471	30.09
627.919	29.54
628.367	29.88
628.815	29.08
629.263	29.2
629.711	29.77
630.159	30.15
630.607	29.44
631.055	29.02
631.503	29.67
631.95	29.86
632.398	28.31
632.846	30.2
633.294	29.13
633.742	29.72
634.189	29.41
634.637	29.78
635.085	29.75
635.532	29.83
635.98	28.74
636.427	29.53
636.875	29.77
637.323	30.27
637.77	29.55
638.217	30.38
638.665	29.68
639.112	29.99
639.56	28.47
640.007	30.03
640.454	29.52
640.902	29.33
641.349	29.24
641.796	28.38
642.243	29.82
642.69	29.44
643.138	29.29
643.585	30.58
644.032	29.54
644.479	30.14
644.926	30.01
645.373	29.5
645.82	29.4
646.267	30.27
646.714	29.31
647.161	29.26
647.607	29.2
648.054	30.08
648.501	30.33
648.948	29.62
649.395	29.97
649.841	29.59
650.288	28.7
650.735	29.86
651.181	28.96
651.628	29.61
652.075	29.42
652.521	29.81
652.968	29.63
653.414	29.96
653.861	29.39
654.307	29.7
654.753	30.01
655.2	29.55
655.646	29.17
656.092	28.84
656.539	30.26
656.985	28.78
657.431	29.9
657.877	29.5
658.324	30.02
658.77	30.13
659.216	29.18
659.662	28.74
660.108	29.16
660.554	29.8
661	29.31
661.446	30.24
661.892	28.88
662.338	28.65
662.784	29.14
663.23	29.69
663.675	29.41
664.121	30.03
664.567	30.53
665.013	29.36
665.458	30.45
665.904	30.15
666.35	28.54
666.795	29.82
667.241	30.17
667.687	28.65
668.132	30.24
668.578	29.4
669.023	29.98
669.469	28.88
669.914	29.25
670.359	30.76
670.805	28.94
671.25	29.71
671.695	28.95
672.141	30.53
672.586	29.86
673.031	30.47
673.476	30.35
673.922	30.41
674.367	30.8
674.812	29.82
675.257	29.76
675.702	30.64
676.147	30
676.592	29.31
677.037	29.32
677.482	30.12
677.927	29.78
678.372	28.82
678.817	30.05
679.261	28.86
679.706	30.03
680.151	29.49
680.596	29.35
681.04	29.37
681.485	29.31
681.93	30.37
682.374	29.9
682.819	30.39
683.264	30.59
683.708	30.16
684.153	29.59
684.597	29.94
685.042	29.95
685.486	29.93
685.93	28.97
686.375	30.14
686.819	29.71
687.263	29.42
687.708	29.85
688.152	29.63
688.596	30.34
689.04	30.28
689.485	29.82
689.929	29.68
690.373	29.27
690.817	29.78
691.261	29.09
691.705	29.5
692.149	29.71
692.593	29.78
693.037	29.33
693.481	30.1
693.925	30.05
694.369	29.95
694.812	29.37
695.256	29.84
695.7	29.9
696.144	29.75
696.587	29.76
697.031	30.33
697.475	29.38
697.918	29.77
698.362	29.6
698.806	29.85
699.249	30.42
699.693	29.13
700.136	29.6
700.58	28.72
701.023	29.32
701.466	29.62
701.91	29.79
702.353	29.57
702.796	30.42
703.24	29.83
703.683	29.81
704.126	30.61
704.569	29.24
705.013	28.57
705.456	29.35
705.899	29.23
706.342	29.35
706.785	29.41
707.228	30.63
707.671	29.96
708.114	29.38
708.557	29.53
709	30.46
709.443	30.53
709.886	29.75
710.328	29.69
710.771	29.63
711.214	29.87
711.657	30.74
712.099	30.16
712.542	29.71
712.985	29.39
713.427	29.31
713.87	30.19
714.313	29.38
714.755	29.82
715.198	29.37
715.64	29.65
716.083	29.74
716.525	29.77
716.967	29.45
717.41	29.88
717.852	29.83
718.295	30.19
718.737	29.75
719.179	30.67
719.621	29.65
720.063	29.88
720.506	29.9
720.948	30.23
721.39	29.66
721.832	29.52
722.274	29.19
722.716	29.71
723.158	29.42
723.6	29.7
724.042	29.91
724.484	29.57
724.926	29.79
725.368	29.34
725.81	29.38
726.251	29.76
726.693	29.95
727.135	30.46
727.577	30.6
728.018	29.25
728.46	28.93
728.902	28.96
729.343	29.37
729.785	30.4
730.226	30.01
730.668	29.82
731.109	30.05
731.551	29.76
731.992	30.03
732.434	29.87
732.875	29.9
733.316	29.88
733.758	30.02
734.199	29.51
734.64	29.1
735.081	30.28
735.523	29.45
735.964	29.41
736.405	28.8
736.846	29.44
737.287	29.63
737.728	29.55
738.169	29.27
738.61	29.59
739.051	29.36
739.492	30.69
739.933	29.67
740.374	29.06
740.815	30.13
741.256	30.76
741.696	29.66
742.137	29.09
742.578	30.4
743.019	29.12
743.459	29.88
743.9	29.26
744.341	29.43
744.781	29.93
745.222	29.89
745.662	29.82
746.103	29.39
746.543	29.56
746.984	29.39
747.424	29.14
747.865	30.09
748.305	30.1
748.745	29.26
749.186	29.27
749.626	29.88
750.066	29.9
750.506	29.96
750.947	29.28
751.387	30.32
751.827	28.9
752.267	29.99
752.707	30.69
753.147	29.99
753.587	29.6
754.027	29.78
754.467	29.85
754.907	30.01
755.347	29.98
755.787	29.49
756.227	30.44
756.667	29.14
757.107	30.19
757.546	29.45
757.986	29.48
758.426	29.77
758.865	29.51
759.305	30.13
759.745	29.65
760.184	30.5
760.624	30.2
761.063	29.83
761.503	29.91
761.943	29.43
762.382	29.38
762.821	29.53
763.261	30.17
763.7	29.49
764.14	29.16
764.579	28.94
765.018	30.37
765.457	29.44
765.897	29.32
766.336	30.06
766.775	29.78
767.214	29.22
767.653	29.65
768.092	29.41
768.531	29.99
768.97	29.92
769.409	29.41
769.848	29.47
770.287	30.18
770.726	29.77
771.165	29.91
771.604	30.02
772.043	29.92
772.482	29.77
772.92	29.79
773.359	29.01
773.798	30.13
774.237	29.68
774.675	30.25
775.114	28.89
775.553	30.54
775.991	29.63
776.43	29.6
776.868	29.49
777.307	29.65
777.745	29.87
778.184	30.28
778.622	29.95
779.06	29.61
779.499	30.58
779.937	29.61
780.375	29.77
780.814	29.78
781.252	29.22
781.69	29.86
782.128	30.05
782.566	29.85
783.004	29.39
783.443	29.92
783.881	29.99
784.319	29.7
784.757	29.59
785.195	30.14
785.633	30.19
786.071	28.88
786.508	30.4
786.946	30.15
787.384	29.6
787.822	29.92
788.26	29.57
788.697	29.02
789.135	29.92
789.573	30.14
790.011	29.78
790.448	29.47
790.886	30.24
791.323	29.96
791.761	30.31
792.198	29.88
792.636	30.07
793.073	29.95
793.511	30.04
793.948	30.44
794.386	30.39
794.823	29.37
795.26	29.24
795.698	29.63
796.135	29.83
796.572	30.23
797.009	29.39
797.446	29.89
797.884	29.83
798.321	30.08
798.758	29.83
799.195	29.39
799.632	29.85
800.069	29.94
800.506	29.16
800.943	29.3
801.38	29.65
801.817	29.88
802.254	29.3
802.69	30.06
803.127	29.59
803.564	29.86
804.001	29.54
804.438	29.75
804.874	30.16
805.311	29.98
805.748	29.83
806.184	29.71
806.621	29.62
807.057	30.14
807.494	29.99
807.93	30.38
808.367	29.99
808.803	30.17
809.24	29.52
809.676	30.17
810.112	29.32
810.549	30.21
810.985	29.73
811.421	29.86
