Data from JCR0027_Black1_Reflection_00003.txt Node
Date: Fri Jul 31 12:29:20 ACST 2020
User: Stacey Dix
Spectrometer: MAYP113282
Scans to average: 1
Trigger mode: 0
Integration Time (sec): 1.000000E-1
Electric dark correction enabled: true
Boxcar width: 0
XAxis mode: Wavelengths
Number of Pixels in Spectrum: 2068
>>>>>Begin Spectral Data<<<<<
198.791	90.91
199.266	-137.5
199.74	80
200.215	50
200.69	18.78
201.164	35.25
201.639	34.48
202.114	40.27
202.588	39.86
203.063	7.57
203.537	16.74
204.012	32.06
204.486	27.56
204.961	35.41
205.435	14.53
205.909	36.72
206.384	31.44
206.858	29.04
207.332	28.57
207.807	17.68
208.281	30.74
208.755	39.04
209.229	28.44
209.703	37.72
210.177	42.78
210.651	28.72
211.126	29.93
211.6	8.66
212.074	34.21
212.548	20.65
213.021	31.09
213.495	36.58
213.969	23.48
214.443	29.26
214.917	19.86
215.391	29.87
215.864	17.86
216.338	20.66
216.812	21.46
217.286	17.32
217.759	22.58
218.233	17.39
218.706	16.33
219.18	8.94
219.654	11.65
220.127	13.7
220.6	7.81
221.074	20.33
221.547	14.55
222.021	11.7
222.494	20.38
222.967	21.9
223.441	14.81
223.914	15.92
224.387	8.37
224.86	16.6
225.334	12.25
225.807	16.37
226.28	11.21
226.753	9.31
227.226	11.07
227.699	11.28
228.172	12.21
228.645	16.54
229.118	8.91
229.591	10.71
230.064	10.51
230.537	10.75
231.01	8.38
231.482	8.63
231.955	8.84
232.428	6.69
232.901	9.01
233.373	7.86
233.846	9.21
234.319	7.4
234.791	8.33
235.264	8.29
235.736	6.08
236.209	8.16
236.681	8.47
237.154	9.95
237.626	8.97
238.099	9.54
238.571	5.79
239.044	9.46
239.516	7.94
239.988	7.52
240.46	8.3
240.933	6.59
241.405	8.09
241.877	8.03
242.349	8.37
242.821	6.96
243.293	8.65
243.765	8.13
244.237	8.01
244.71	7.38
245.181	6.85
245.653	7.51
246.125	8.47
246.597	7.97
247.069	6.39
247.541	7.11
248.013	7.48
248.485	7.33
248.956	7.17
249.428	6.07
249.9	5.91
250.371	6.8
250.843	7.63
251.315	8.04
251.786	5.91
252.258	6.17
252.729	7.24
253.201	6.61
253.672	5.75
254.144	6.4
254.615	6.07
255.086	6.16
255.558	6.8
256.029	6.44
256.5	6.46
256.972	6.05
257.443	6.15
257.914	6.51
258.385	6.27
258.856	5.93
259.327	6.03
259.799	5.72
260.27	6.57
260.741	6.24
261.212	6.36
261.683	7
262.154	5.59
262.624	5.54
263.095	5.94
263.566	6.45
264.037	6.72
264.508	5.44
264.979	6.21
265.449	5.77
265.92	5.82
266.391	5.92
266.861	5.71
267.332	6.27
267.803	6
268.273	6.6
268.744	5.9
269.214	6.57
269.685	6.23
270.155	5.53
270.626	6.96
271.096	5.59
271.566	6.08
272.037	6.13
272.507	6.29
272.977	5.59
273.448	6.11
273.918	6.29
274.388	5.76
274.858	4.83
275.328	5.9
275.798	5.54
276.268	6.07
276.738	5.98
277.208	6.76
277.678	5.84
278.148	6.48
278.618	5.73
279.088	6.65
279.558	6.29
280.028	5.7
280.498	5.63
280.968	5.9
281.437	4.78
281.907	6.16
282.377	5.8
282.847	6
283.316	5.9
283.786	6.08
284.255	5.82
284.725	5.91
285.194	6.46
285.664	5.57
286.133	5.35
286.603	5.3
287.072	5.55
287.542	5.7
288.011	5
288.48	5.86
288.95	5.46
289.419	5.93
289.888	5.37
290.357	6.27
290.827	6.14
291.296	6.01
291.765	5.04
292.234	6.29
292.703	5.28
293.172	6.36
293.641	5.92
294.11	5.64
294.579	5.25
295.048	6.04
295.517	5.46
295.986	5.64
296.455	5.85
296.923	6.41
297.392	5.38
297.861	5.95
298.33	5.74
298.798	5.98
299.267	6.05
299.736	5.83
300.204	6.15
300.673	6.07
301.141	5.57
301.61	5.89
302.079	5.4
302.547	6.24
303.015	5.45
303.484	5.32
303.952	5.7
304.421	5.67
304.889	6.04
305.357	5.58
305.825	5.93
306.294	6.61
306.762	6.41
307.23	6.8
307.698	6.35
308.166	6.15
308.634	5.82
309.103	6.08
309.571	7.27
310.039	6.08
310.507	6.29
310.975	6.58
311.442	6.56
311.91	6.29
312.378	6.31
312.846	5.8
313.314	6.04
313.782	5.05
314.249	6.51
314.717	6.69
315.185	5.59
315.652	5.57
316.12	5.3
316.588	5.6
317.055	6.64
317.523	6.26
317.99	6.7
318.458	6.15
318.925	5.95
319.393	5.61
319.86	6.39
320.328	5.65
320.795	5.64
321.262	6.69
321.73	5.1
322.197	6.04
322.664	6.39
323.131	6.14
323.598	6.51
324.066	6.37
324.533	6.35
325	7.15
325.467	7.09
325.934	6.81
326.401	6.99
326.868	6.73
327.335	7.15
327.802	7.9
328.269	8.13
328.735	7.51
329.202	7.25
329.669	6.95
330.136	7.57
330.603	7.79
331.069	8.16
331.536	8.06
332.003	8.22
332.469	7.81
332.936	7.43
333.402	7.89
333.869	7.62
334.336	7.31
334.802	8.28
335.268	7.43
335.735	8.31
336.201	7.57
336.668	8.03
337.134	8.16
337.6	7.84
338.067	7.72
338.533	8.24
338.999	7.74
339.465	8.22
339.931	8.23
340.398	8.76
340.864	7.79
341.33	8.34
341.796	8.93
342.262	8.19
342.728	7.81
343.194	8.8
343.66	7.45
344.126	7.85
344.592	7.13
345.057	7.96
345.523	7.67
345.989	8.46
346.455	8.49
346.921	8.55
347.386	8.8
347.852	8.58
348.318	8.07
348.783	8.45
349.249	7.59
349.714	7.67
350.18	7.89
350.645	8.34
351.111	8.06
351.576	8.11
352.042	8.94
352.507	8.34
352.973	8.56
353.438	8.03
353.903	9.41
354.369	7.39
354.834	8.51
355.299	9.31
355.764	7.74
356.229	7.75
356.695	8.67
357.16	8.42
357.625	8.33
358.09	8.41
358.555	7.88
359.02	8.65
359.485	8.7
359.95	8.23
360.415	8.73
360.879	10.42
361.344	9.05
361.809	9.17
362.274	8.35
362.739	9.73
363.203	8.55
363.668	8.72
364.133	9.24
364.597	8.77
365.062	8.73
365.527	8.53
365.991	8.91
366.456	8.68
366.92	9.83
367.385	8.75
367.849	9.6
368.314	8.74
368.778	9.92
369.242	9.81
369.707	9.33
370.171	9.88
370.635	9.65
371.1	9.47
371.564	9.9
372.028	10.86
372.492	9.3
372.956	8.8
373.42	10.29
373.884	8.58
374.348	10.63
374.812	9.26
375.276	10.72
375.74	9.56
376.204	9.74
376.668	9.75
377.132	10.68
377.596	9.54
378.06	9.37
378.524	9.28
378.987	10.34
379.451	10.61
379.915	10.48
380.378	9.45
380.842	10.42
381.306	10.66
381.769	10.3
382.233	10.89
382.696	10.17
383.16	10.62
383.623	9.15
384.087	9.88
384.55	10.04
385.014	9.71
385.477	10.39
385.94	11.16
386.404	9.52
386.867	11.65
387.33	9.72
387.793	10.5
388.256	11.4
388.72	10.97
389.183	10.44
389.646	11.03
390.109	10.96
390.572	11.73
391.035	10.57
391.498	10.99
391.961	10.36
392.424	10.35
392.887	11.35
393.35	10.76
393.812	11.29
394.275	9.79
394.738	11.15
395.201	10.6
395.664	10.65
396.126	11.84
396.589	10.14
397.052	10.63
397.514	11.58
397.977	11.37
398.439	11.78
398.902	11.36
399.364	10.8
399.827	11.32
400.289	10.78
400.752	11
401.214	11.38
401.676	12.17
402.139	11
402.601	11.4
403.063	11.06
403.525	11.54
403.988	11.22
404.45	11.44
404.912	10.79
405.374	11.42
405.836	10.81
406.298	10.59
406.76	11.73
407.222	11.52
407.684	10.98
408.146	11.04
408.608	11.52
409.07	11.64
409.532	11.2
409.994	11.14
410.456	11.36
410.917	11.62
411.379	10.67
411.841	10.67
412.303	11.2
412.764	11.95
413.226	10.31
413.687	11.25
414.149	11
414.611	11.73
415.072	11.6
415.534	10.65
415.995	11.84
416.457	9.55
416.918	11.58
417.379	11.56
417.841	12.29
418.302	11.01
418.763	12.1
419.225	11.23
419.686	12.39
420.147	11.79
420.608	12.84
421.069	11.52
421.53	11.82
421.991	11.32
422.453	11.32
422.914	12.69
423.375	11.02
423.836	11.64
424.297	11.84
424.757	11.33
425.218	11.41
425.679	12.86
426.14	11.21
426.601	12.24
427.062	12.57
427.522	11.41
427.983	12.6
428.444	12.9
428.904	11.89
429.365	12.7
429.826	13.48
430.286	13.14
430.747	14.41
431.207	13.78
431.668	13.92
432.128	13.98
432.589	14.31
433.049	13.08
433.509	11.73
433.97	12.35
434.43	12.45
434.89	12.82
435.351	12.32
435.811	13.76
436.271	14.06
436.731	14.14
437.191	11.34
437.651	13.73
438.112	13.53
438.572	11.71
439.032	13.17
439.492	12.51
439.952	14.21
440.412	13.71
440.871	13.92
441.331	13.14
441.791	14.26
442.251	12.04
442.711	12.52
443.171	14.01
443.63	13.51
444.09	14.2
444.55	13.28
445.009	14.27
445.469	14.52
445.929	14.77
446.388	12.88
446.848	12.71
447.307	15.37
447.767	12.92
448.226	14.8
448.686	14.95
449.145	12.27
449.604	12.45
450.064	12.77
450.523	15.4
450.982	13.87
451.442	14.1
451.901	15.22
452.36	13.66
452.819	13.19
453.278	13.69
453.737	15.76
454.197	13.49
454.656	12.53
455.115	13.56
455.574	15.61
456.033	13.88
456.492	13.28
456.95	14.29
457.409	13.03
457.868	13.2
458.327	14.07
458.786	13.66
459.245	14.36
459.703	14.41
460.162	13.75
460.621	13.3
461.079	14.84
461.538	14.74
461.997	15.3
462.455	12.21
462.914	14.73
463.372	14.15
463.831	12.96
464.289	16.07
464.748	13.79
465.206	13.78
465.664	13.67
466.123	13.19
466.581	14.32
467.039	15.32
467.497	13.87
467.956	13.28
468.414	14.08
468.872	13.97
469.33	15.17
469.788	14.1
470.246	14.97
470.704	12.63
471.162	13.94
471.62	14.82
472.078	12.22
472.536	13.58
472.994	15.84
473.452	13.17
473.91	16.77
474.368	11.86
474.826	15.44
475.283	14.97
475.741	14.44
476.199	14.37
476.656	15.03
477.114	14.81
477.572	14.58
478.029	15.05
478.487	13.58
478.944	14.08
479.402	16.95
479.859	12.59
480.317	14.15
480.774	15.32
481.232	14.66
481.689	15.22
482.146	13.48
482.604	14.44
483.061	14.27
483.518	13.99
483.975	15.24
484.433	14.59
484.89	14.17
485.347	13.51
485.804	16.16
486.261	14.68
486.718	13.81
487.175	16.18
487.632	14.04
488.089	12.86
488.546	18.06
489.003	15.7
489.46	13.75
489.917	15.71
490.373	15.07
490.83	14.79
491.287	15.8
491.744	13.33
492.2	15.48
492.657	14.59
493.114	15.53
493.57	13.89
494.027	15.88
494.484	13.31
494.94	14.78
495.397	14.04
495.853	16.01
496.31	15.99
496.766	15.81
497.222	13.46
497.679	14.44
498.135	14.71
498.591	14.41
499.048	14.53
499.504	13.91
499.96	16.58
500.416	14.22
500.872	13.8
501.329	15.7
501.785	15.85
502.241	15.01
502.697	15.52
503.153	14.45
503.609	15.49
504.065	14.88
504.521	13.53
504.977	16.19
505.432	12.39
505.888	14.93
506.344	14.72
506.8	14.26
507.256	14.29
507.711	15.7
508.167	15.33
508.623	14.6
509.078	14.61
509.534	15.77
509.99	13.42
510.445	14.54
510.901	13.58
511.356	15.6
511.812	13.08
512.267	15.72
512.722	15.44
513.178	15.17
513.633	16.59
514.089	15.93
514.544	15.29
514.999	14.75
515.454	14.65
515.91	14.67
516.365	16.34
516.82	14.45
517.275	15.21
517.73	13.95
518.185	14.91
518.64	15.63
519.095	14.57
519.55	14.04
520.005	14.07
520.46	14.3
520.915	14.66
521.37	14.64
521.825	14.2
522.28	14.16
522.734	15.28
523.189	15.74
523.644	14.91
524.099	15.95
524.553	15.53
525.008	14.94
525.462	16.6
525.917	15.8
526.372	16.43
526.826	14.74
527.281	15.72
527.735	14.98
528.19	14.77
528.644	15.79
529.098	15.24
529.553	15.75
530.007	14.49
530.461	15.68
530.916	13.89
531.37	14.62
531.824	15.46
532.278	14.92
532.732	14.99
533.186	14.03
533.641	15.22
534.095	15.51
534.549	14.68
535.003	14.1
535.457	15.36
535.911	16.47
536.365	15.13
536.818	14.4
537.272	16.21
537.726	16.82
538.18	13.95
538.634	17.06
539.087	15.58
539.541	15.11
539.995	16.2
540.449	15.76
540.902	15.61
541.356	15.71
541.809	13.78
542.263	14.97
542.716	15.24
543.17	15.64
543.623	16.48
544.077	16.45
544.53	14.82
544.984	16.27
545.437	14.93
545.89	15.21
546.344	15.74
546.797	15.99
547.25	16.92
547.703	16.44
548.157	16.59
548.61	16.97
549.063	16.06
549.516	14.64
549.969	16.29
550.422	16.45
550.875	15
551.328	16.23
551.781	17.19
552.234	17.23
552.687	14.74
553.14	15.91
553.592	15.22
554.045	17.45
554.498	15.02
554.951	15.9
555.404	16.54
555.856	17.39
556.309	16.64
556.762	15.66
557.214	17.31
557.667	16.6
558.119	17.56
558.572	14.62
559.024	16.02
559.477	16.22
559.929	17.19
560.382	16.71
560.834	15.53
561.286	15.74
561.739	16.16
562.191	16.23
562.643	17.31
563.095	16.25
563.548	16.07
564	15.93
564.452	16.64
564.904	16.4
565.356	17.24
565.808	15.61
566.26	17.29
566.712	16.23
567.164	16.41
567.616	15.24
568.068	16.86
568.52	18.01
568.972	15.85
569.424	16.11
569.876	17.02
570.327	15.72
570.779	16.52
571.231	17.18
571.682	17.01
572.134	16.62
572.586	16.55
573.037	16.66
573.489	15.62
573.941	16.63
574.392	16.4
574.844	16.21
575.295	16.17
575.746	17.16
576.198	16.22
576.649	16.14
577.101	16.95
577.552	16.64
578.003	16
578.454	16.37
578.906	16.07
579.357	16.78
579.808	16.88
580.259	16.66
580.71	18.09
581.161	16.39
581.612	16.51
582.064	15.98
582.515	16.71
582.965	16.42
583.416	16.79
583.867	17.44
584.318	17.03
584.769	16.45
585.22	17.71
585.671	16.73
586.122	16.83
586.572	16.91
587.023	17.29
587.474	16.8
587.924	16.96
588.375	15.22
588.826	16.5
589.276	16.59
589.727	16.79
590.177	16.19
590.628	17.85
591.078	16.41
591.529	17.41
591.979	17.04
592.429	16.78
592.88	17.6
593.33	15.87
593.78	16.82
594.231	16.36
594.681	15.71
595.131	16.68
595.581	17.01
596.031	16.26
596.481	15.75
596.932	17.39
597.382	17.38
597.832	17.06
598.282	17.07
598.732	17.32
599.182	16.22
599.632	17.54
600.081	17.27
600.531	16.98
600.981	18.14
601.431	16.67
601.881	17.11
602.33	16.66
602.78	15.84
603.23	17.38
603.679	17.94
604.129	17.14
604.579	17.94
605.028	17.25
605.478	16.73
605.927	16.77
606.377	16.06
606.826	17.36
607.276	16.35
607.725	17.26
608.175	17.18
608.624	17.47
609.073	17.48
609.522	17.98
609.972	16.31
610.421	16.8
610.87	16.29
611.319	17.62
611.768	17.96
612.218	17.59
612.667	18.64
613.116	17.01
613.565	17.88
614.014	16.36
614.463	17.6
614.912	17.29
615.361	17.31
615.81	17.18
616.258	17.4
616.707	17.25
617.156	17.9
617.605	16.03
618.054	17.99
618.502	16.92
618.951	17.69
619.4	17.79
619.848	18.94
620.297	17.07
620.745	17.89
621.194	17.24
621.642	17.41
622.091	16.33
622.539	17.74
622.988	16.45
623.436	17.42
623.885	17.61
624.333	17.44
624.781	16.95
625.23	18.03
625.678	18.29
626.126	17.45
626.574	16.78
627.022	16.99
627.471	17.62
627.919	16.9
628.367	17.49
628.815	17.6
629.263	17.19
629.711	17.33
630.159	17.18
630.607	16.8
631.055	16.94
631.503	17.4
631.95	17.44
632.398	17.7
632.846	17.85
633.294	16.85
633.742	18.13
634.189	18.13
634.637	18.22
635.085	17.62
635.532	16.67
635.98	17.55
636.427	17.84
636.875	17.76
637.323	17.62
637.77	18.05
638.217	17.69
638.665	17.62
639.112	17.79
639.56	16.59
640.007	18.18
640.454	17.88
640.902	17.01
641.349	17.68
641.796	17.38
642.243	18.54
642.69	16.94
643.138	17.21
643.585	17.33
644.032	17.33
644.479	17.77
644.926	17.93
645.373	17.86
645.82	17.91
646.267	17.96
646.714	17.67
647.161	17.88
647.607	17.64
648.054	17.95
648.501	18.35
648.948	17.94
649.395	17.81
649.841	17.43
650.288	17.4
650.735	18.39
651.181	18.1
651.628	18.03
652.075	18
652.521	17.42
652.968	18.25
653.414	17
653.861	17.91
654.307	17.62
654.753	18.65
655.2	17.95
655.646	17.02
656.092	17.95
656.539	17
656.985	17.53
657.431	17.72
657.877	17.79
658.324	18
658.77	18.08
659.216	18
659.662	17.83
660.108	18.22
660.554	17.65
661	17.64
661.446	18.27
661.892	18.48
662.338	17.78
662.784	18.2
663.23	18.21
663.675	17.95
664.121	18.1
664.567	18.57
665.013	18.35
665.458	18.68
665.904	17.92
666.35	17.67
666.795	18.47
667.241	17.91
667.687	17.49
668.132	18.51
668.578	18.11
669.023	18.34
669.469	17.31
669.914	18.23
670.359	18.39
670.805	18.65
671.25	18.05
671.695	17.97
672.141	18
672.586	19.12
673.031	17.82
673.476	18.35
673.922	18.33
674.367	17.74
674.812	18.53
675.257	18.46
675.702	18.38
676.147	18.64
676.592	17.81
677.037	18.32
677.482	18.94
677.927	17.77
678.372	18.08
678.817	18.63
679.261	17.96
679.706	18.12
680.151	18.26
680.596	18.26
681.04	18.56
681.485	18.24
681.93	17.95
682.374	18.23
682.819	18.21
683.264	18.59
683.708	18.85
684.153	18.53
684.597	18.41
685.042	18.5
685.486	18.89
685.93	17.97
686.375	18.93
686.819	17.95
687.263	18.42
687.708	18.07
688.152	18.75
688.596	18.53
689.04	18.5
689.485	18.75
689.929	18.33
690.373	18.27
690.817	19.12
691.261	18.58
691.705	18.31
692.149	18.71
692.593	18.31
693.037	18.54
693.481	18.59
693.925	20.01
694.369	18.77
694.812	18.81
695.256	18.91
695.7	18.78
696.144	18.8
696.587	18.74
697.031	18.52
697.475	18.29
697.918	19
698.362	18.3
698.806	18.65
699.249	19.55
699.693	18.56
700.136	18.51
700.58	18.4
701.023	18.76
701.466	18.39
701.91	19.3
702.353	19.35
702.796	19.03
703.24	18.83
703.683	18.65
704.126	19.08
704.569	17.85
705.013	18.83
705.456	19.21
705.899	18.88
706.342	18.65
706.785	18.45
707.228	19.7
707.671	18.81
708.114	19.15
708.557	18.72
709	19.21
709.443	19.11
709.886	18.84
710.328	19.54
710.771	18.93
711.214	19.49
711.657	19.38
712.099	19.1
712.542	19.29
712.985	19.02
713.427	19.12
713.87	19.5
714.313	19.13
714.755	18.84
715.198	19.1
715.64	18.84
716.083	19.39
716.525	19.35
716.967	19.01
717.41	19.19
717.852	18.5
718.295	19.59
718.737	19.24
719.179	19.09
719.621	19.95
720.063	19.44
720.506	19.13
720.948	19.4
721.39	19.72
721.832	18.95
722.274	19.4
722.716	19.43
723.158	18.81
723.6	19.58
724.042	19.35
724.484	19.7
724.926	18.99
725.368	19.01
725.81	19.32
726.251	18.79
726.693	19.34
727.135	19.58
727.577	19.01
728.018	19.22
728.46	19.78
728.902	18.67
729.343	19.28
729.785	19.37
730.226	18.73
730.668	18.77
731.109	19.69
731.551	19.3
731.992	19.44
732.434	19.36
732.875	19.61
733.316	19.68
733.758	20.39
734.199	19.16
734.64	18.76
735.081	20.19
735.523	20.15
735.964	19.54
736.405	19.12
736.846	20.28
737.287	19.67
737.728	19.48
738.169	20
738.61	19.6
739.051	19.78
739.492	20.45
739.933	19.33
740.374	20.04
740.815	19.41
741.256	20.48
741.696	20.55
742.137	18.71
742.578	19.85
743.019	19.8
743.459	19.8
743.9	20.08
744.341	20.02
744.781	19.63
745.222	19.31
745.662	19.48
746.103	20.86
746.543	19.61
746.984	19.93
747.424	19.73
747.865	19.85
748.305	19.99
748.745	19.75
749.186	20.11
749.626	20.05
750.066	19.35
750.506	19.56
750.947	20.1
751.387	19.72
751.827	19.49
752.267	20.11
752.707	19.87
753.147	19.87
753.587	20.69
754.027	19.57
754.467	19.93
754.907	19.77
755.347	20.03
755.787	19.95
756.227	19.82
756.667	19.8
757.107	19.46
757.546	20.34
757.986	19.42
758.426	19.74
758.865	19.88
759.305	19.75
759.745	20.55
760.184	20.06
760.624	20.94
761.063	19.95
761.503	19.96
761.943	20.05
762.382	20.66
762.821	20
763.261	19.16
763.7	19.91
764.14	20.36
764.579	20.09
765.018	20.51
765.457	20.02
765.897	20.55
766.336	20.08
766.775	20.1
767.214	19.97
767.653	20.38
768.092	20.15
768.531	20
768.97	20.52
769.409	19.38
769.848	20.25
770.287	20.71
770.726	20.13
771.165	20.52
771.604	20.92
772.043	20.29
772.482	20.22
772.92	20.25
773.359	19.85
773.798	20.74
774.237	20.21
774.675	20.83
775.114	20.2
775.553	20.95
775.991	20.53
776.43	20.18
776.868	20.52
777.307	20.13
777.745	20.46
778.184	20.89
778.622	20.45
779.06	20.4
779.499	20.37
779.937	20.21
780.375	20.79
780.814	20.45
781.252	20.65
781.69	20.45
782.128	21.17
782.566	20.99
783.004	20.09
783.443	20.63
783.881	21.32
784.319	20.28
784.757	20.52
785.195	20.54
785.633	20.21
786.071	20.56
786.508	20.56
786.946	20.75
787.384	20.41
787.822	20.23
788.26	20.82
788.697	20.81
789.135	20.58
789.573	21.02
790.011	21
790.448	20.87
790.886	20.9
791.323	20.67
791.761	21.18
792.198	20.82
792.636	20.94
793.073	20.75
793.511	21.05
793.948	20.57
794.386	21.28
794.823	21.27
795.26	20.65
795.698	20.34
796.135	21.2
796.572	21.04
797.009	20.15
797.446	21.01
797.884	20.68
798.321	21.25
798.758	20.53
799.195	21.19
799.632	20.79
800.069	21.08
800.506	20.88
800.943	20.83
801.38	20.91
801.817	21.13
802.254	20.94
802.69	20.78
803.127	20.83
803.564	21.33
804.001	20.74
804.438	21.29
804.874	21.09
805.311	21.01
805.748	20.82
806.184	21.01
806.621	20.95
807.057	21.3
807.494	20.94
807.93	21.68
808.367	21.36
808.803	21
809.24	21.51
809.676	20.96
810.112	20.95
810.549	21.55
810.985	21.42
811.421	21.43
811.857	21.54
812.294	21.22
812.73	21.74
813.166	21.06
813.602	21.47
814.038	21.37
814.474	21.12
814.91	21.33
815.346	21.27
