Data from JCR0023_Black1_Reflection_00002.txt Node
Date: Fri Jul 31 11:43:45 ACST 2020
User: Stacey Dix
Spectrometer: MAYP113282
Scans to average: 1
Trigger mode: 0
Integration Time (sec): 1.000000E-1
Electric dark correction enabled: true
Boxcar width: 0
XAxis mode: Wavelengths
Number of Pixels in Spectrum: 2068
>>>>>Begin Spectral Data<<<<<
198.791	31.82
199.266	-181.25
199.74	85
200.215	-275
200.69	3.3
201.164	-2.05
201.639	-7.33
202.114	23.72
202.588	37.54
203.063	28.88
203.537	15.27
204.012	27.51
204.486	4.92
204.961	10.7
205.435	13.34
205.909	36.56
206.384	6.19
206.858	18.93
207.332	27.57
207.807	19.2
208.281	23.48
208.755	14.47
209.229	31.09
209.703	21.53
210.177	35.84
210.651	15.37
211.126	23.42
211.6	-11.61
212.074	23.03
212.548	32.74
213.021	11.58
213.495	30.13
213.969	25.83
214.443	18.09
214.917	17.04
215.391	9.24
215.864	5.15
216.338	13.3
216.812	21.96
217.286	18.3
217.759	34.9
218.233	20.43
218.706	21.8
219.18	18.7
219.654	20.96
220.127	21.5
220.6	12.43
221.074	23.56
221.547	21.88
222.021	15.23
222.494	20.32
222.967	24.31
223.441	17.64
223.914	20.44
224.387	16.88
224.86	21.45
225.334	22.09
225.807	14.44
226.28	16.54
226.753	11.69
227.226	19.25
227.699	17.12
228.172	14.65
228.645	15.88
229.118	9.79
229.591	14.9
230.064	14.15
230.537	16.39
231.01	12.82
231.482	14.31
231.955	10.85
232.428	13.04
232.901	12.95
233.373	15.02
233.846	14.96
234.319	15.07
234.791	13.2
235.264	12.85
235.736	14.34
236.209	13.91
236.681	12.87
237.154	14.11
237.626	13.53
238.099	15.2
238.571	12.97
239.044	13.67
239.516	15.8
239.988	12.94
240.46	15.33
240.933	13.29
241.405	13.9
241.877	12.34
242.349	13.6
242.821	14.36
243.293	14.49
243.765	14.68
244.237	13.23
244.71	13.13
245.181	12.7
245.653	13.91
246.125	11.92
246.597	14.72
247.069	11.25
247.541	12.83
248.013	12.37
248.485	12.8
248.956	12.4
249.428	12.45
249.9	12.33
250.371	11.57
250.843	11.83
251.315	12.78
251.786	12.93
252.258	11.43
252.729	12.84
253.201	13.04
253.672	12.2
254.144	12.08
254.615	11.15
255.086	11.3
255.558	12.32
256.029	11.56
256.5	11.64
256.972	12.16
257.443	12.01
257.914	11.63
258.385	11.94
258.856	12.29
259.327	11.07
259.799	11.63
260.27	11.26
260.741	10.85
261.212	10.68
261.683	11.51
262.154	11.3
262.624	11.68
263.095	11.14
263.566	11.24
264.037	11.66
264.508	10.91
264.979	11.3
265.449	10.76
265.92	11.74
266.391	11.54
266.861	10.84
267.332	10.36
267.803	11.97
268.273	11.81
268.744	10.19
269.214	11.48
269.685	11.81
270.155	11.06
270.626	10.9
271.096	11.62
271.566	11.42
272.037	10.64
272.507	11.1
272.977	11.23
273.448	10.87
273.918	10.61
274.388	11.5
274.858	10.65
275.328	11.03
275.798	11.57
276.268	10.72
276.738	10.78
277.208	12.5
277.678	11.33
278.148	11.26
278.618	11.38
279.088	10.37
279.558	11.49
280.028	9.83
280.498	10.75
280.968	10.15
281.437	10.96
281.907	11.02
282.377	11.21
282.847	10.4
283.316	10.41
283.786	10.28
284.255	10.41
284.725	10.73
285.194	10.74
285.664	11.39
286.133	9.9
286.603	10.57
287.072	11.08
287.542	10.93
288.011	10.29
288.48	10.5
288.95	10.66
289.419	10.47
289.888	10.13
290.357	11.06
290.827	10.48
291.296	10.38
291.765	9.47
292.234	10.6
292.703	9.7
293.172	10.75
293.641	9.81
294.11	10.83
294.579	10.45
295.048	9.89
295.517	9.9
295.986	10.56
296.455	10.45
296.923	10.92
297.392	10.12
297.861	10.61
298.33	10.81
298.798	10.77
299.267	10.91
299.736	10.85
300.204	10.72
300.673	10.84
301.141	9.66
301.61	10.38
302.079	10.22
302.547	10.65
303.015	9.97
303.484	10.89
303.952	10.46
304.421	10.09
304.889	11.08
305.357	9.79
305.825	10.57
306.294	11.25
306.762	10.67
307.23	10.85
307.698	10.97
308.166	10.72
308.634	10.64
309.103	10.06
309.571	10.48
310.039	10.4
310.507	10.34
310.975	10.38
311.442	9.58
311.91	10.41
312.378	11.21
312.846	10.05
313.314	10.65
313.782	10.12
314.249	11.05
314.717	10.99
315.185	9.27
315.652	9.85
316.12	10.27
316.588	10.57
317.055	10.81
317.523	10.29
317.99	11.08
318.458	10.01
318.925	10.78
319.393	10.28
319.86	10.38
320.328	10.85
320.795	9.92
321.262	10.21
321.73	9.42
322.197	10.19
322.664	10.17
323.131	10.57
323.598	10.06
324.066	9.45
324.533	10.52
325	11.84
325.467	10.4
325.934	10.28
326.401	11.02
326.868	10.12
327.335	10.76
327.802	10.56
328.269	10.41
328.735	11.41
329.202	10.75
329.669	11.64
330.136	11.23
330.603	10.77
331.069	10.76
331.536	11.16
332.003	10.37
332.469	9.57
332.936	11.01
333.402	11.66
333.869	10.74
334.336	10.37
334.802	10.35
335.268	9.73
335.735	10.26
336.201	11.07
336.668	10.72
337.134	10.79
337.6	9.73
338.067	10.39
338.533	10.84
338.999	10.27
339.465	10.58
339.931	10.1
340.398	10.98
340.864	10.94
341.33	10.21
341.796	10.42
342.262	11.03
342.728	9.67
343.194	10.34
343.66	10.43
344.126	10.12
344.592	10.12
345.057	9.99
345.523	9.58
345.989	10.91
346.455	10.92
346.921	11.38
347.386	11.08
347.852	10.47
348.318	9.81
348.783	11.54
349.249	9.76
349.714	9.62
350.18	10.16
350.645	10.67
351.111	8.9
351.576	9.9
352.042	10.14
352.507	10.99
352.973	10.04
353.438	10.04
353.903	10.02
354.369	9.27
354.834	10.66
355.299	10.53
355.764	10.51
356.229	11.56
356.695	10.52
357.16	9.95
357.625	9.94
358.09	9.66
358.555	9.68
359.02	9.9
359.485	10.37
359.95	9.73
360.415	11.1
360.879	10.17
361.344	10.46
361.809	11.25
362.274	10.54
362.739	11.08
363.203	9.8
363.668	10.07
364.133	9.9
364.597	9.83
365.062	9.99
365.527	10.06
365.991	10.07
366.456	9.8
366.92	10.29
367.385	9.76
367.849	10.39
368.314	9.19
368.778	11
369.242	10.74
369.707	11.45
370.171	11.47
370.635	9.86
371.1	9.81
371.564	11.13
372.028	9.82
372.492	10.37
372.956	10.48
373.42	10.66
373.884	10.06
374.348	10.71
374.812	9.46
375.276	10.15
375.74	9.19
376.204	10.09
376.668	9.98
377.132	11.26
377.596	8.7
378.06	11.56
378.524	9.58
378.987	10.03
379.451	10.25
379.915	9.97
380.378	10.22
380.842	9.94
381.306	10.62
381.769	9.07
382.233	10.48
382.696	9.6
383.16	11.12
383.623	9.46
384.087	9.59
384.55	9.83
385.014	9.35
385.477	10.14
385.94	9.41
386.404	8.8
386.867	9.83
387.33	10.16
387.793	10.88
388.256	10.16
388.72	10.85
389.183	9.62
389.646	11.36
390.109	10.61
390.572	11.8
391.035	9.2
391.498	10.09
391.961	10.35
392.424	10.31
392.887	10.4
393.35	9.65
393.812	9.97
394.275	9.54
394.738	11.47
395.201	10.52
395.664	10.16
396.126	11.06
396.589	10.83
397.052	10.01
397.514	10.31
397.977	10.47
398.439	10.81
398.902	10.03
399.364	10.52
399.827	9.88
400.289	9.93
400.752	10.99
401.214	10.49
401.676	10.3
402.139	9.86
402.601	9.5
403.063	10.26
403.525	10.16
403.988	10.28
404.45	9.77
404.912	10.91
405.374	10.57
405.836	9.27
406.298	9.86
406.76	10.24
407.222	9.54
407.684	9.82
408.146	9.86
408.608	10.07
409.07	9.66
409.532	9.24
409.994	9.71
410.456	9.75
410.917	10.22
411.379	9.84
411.841	10.29
412.303	11.23
412.764	10.83
413.226	9.56
413.687	9.76
414.149	9.83
414.611	11.4
415.072	9.92
415.534	10.57
415.995	9.59
416.457	9.58
416.918	9.73
417.379	10.43
417.841	9.9
418.302	9.79
418.763	9.39
419.225	10.28
419.686	10.03
420.147	10.79
420.608	10.9
421.069	10.51
421.53	10.83
421.991	10.15
422.453	10.34
422.914	11.32
423.375	9.27
423.836	10.81
424.297	10.57
424.757	10.82
425.218	9.22
425.679	9.91
426.14	9.74
426.601	10.25
427.062	10.06
427.522	9.55
427.983	10.82
428.444	10.1
428.904	11.01
429.365	10.08
429.826	9.24
430.286	10.9
430.747	11.39
431.207	9.99
431.668	11.54
432.128	11.19
432.589	11.33
433.049	10.63
433.509	10.38
433.97	11.37
434.43	11.51
434.89	10.25
435.351	7.83
435.811	11.1
436.271	11.33
436.731	11.62
437.191	10.65
437.651	10.79
438.112	11.96
438.572	10.69
439.032	9.13
439.492	10.13
439.952	11.79
440.412	10.9
440.871	9.44
441.331	10.74
441.791	9.99
442.251	10.44
442.711	9.26
443.171	9.38
443.63	8.54
444.09	11.86
444.55	12.73
445.009	10.58
445.469	12.1
445.929	10.51
446.388	11.19
446.848	12.7
447.307	11.91
447.767	11.54
448.226	11.61
448.686	10.26
449.145	10.23
449.604	9.77
450.064	11.13
450.523	11.46
450.982	11.04
451.442	11.6
451.901	12.66
452.36	10.98
452.819	11.69
453.278	7.97
453.737	10.67
454.197	10.74
454.656	10.74
455.115	10.12
455.574	10.9
456.033	10.55
456.492	10.48
456.95	9.75
457.409	10.58
457.868	10.66
458.327	13.33
458.786	9.94
459.245	11.08
459.703	11.05
460.162	11.57
460.621	10.6
461.079	9.85
461.538	10.27
461.997	10.57
462.455	10.87
462.914	10.79
463.372	9.83
463.831	8.68
464.289	11.36
464.748	11.46
465.206	11.38
465.664	9.39
466.123	10.77
466.581	10.1
467.039	12.3
467.497	9.61
467.956	11.61
468.414	11.75
468.872	10.13
469.33	9.75
469.788	11.27
470.246	11.77
470.704	9.32
471.162	9.15
471.62	11.51
472.078	9.93
472.536	11.13
472.994	11.34
473.452	11.09
473.91	10.94
474.368	10.67
474.826	13.84
475.283	12.01
475.741	9.96
476.199	10.56
476.656	11.39
477.114	10.33
477.572	10.58
478.029	11.09
478.487	11.62
478.944	11.74
479.402	11.87
479.859	10.79
480.317	10.88
480.774	12.31
481.232	8.41
481.689	11.99
482.146	10.83
482.604	8.22
483.061	12.34
483.518	12.36
483.975	11.05
484.433	11.93
484.89	9.73
485.347	10.49
485.804	11.06
486.261	11.3
486.718	11.47
487.175	10.98
487.632	8.45
488.089	9.82
488.546	12.87
489.003	12.33
489.46	11.98
489.917	11.39
490.373	12.56
490.83	11.54
491.287	12.32
491.744	9.43
492.2	11.62
492.657	12.3
493.114	11.44
493.57	10.74
494.027	12.45
494.484	10.85
494.94	11.49
495.397	11.25
495.853	11.26
496.31	11.88
496.766	11.3
497.222	10.62
497.679	10.88
498.135	11.45
498.591	9.76
499.048	11.09
499.504	10.39
499.96	11.3
500.416	10.92
500.872	12.08
501.329	11.13
501.785	11
502.241	11.75
502.697	10.84
503.153	11.79
503.609	10.85
504.065	10.81
504.521	10.55
504.977	11.73
505.432	10.37
505.888	10.65
506.344	12.12
506.8	11.42
507.256	11.08
507.711	11.86
508.167	11.45
508.623	10.63
509.078	11.02
509.534	11.95
509.99	12.09
510.445	10.69
510.901	11.22
511.356	10.98
511.812	11.16
512.267	10.26
512.722	11.89
513.178	11.86
513.633	11.54
514.089	10.77
514.544	11.5
514.999	12.18
515.454	13.59
515.91	11.59
516.365	11.82
516.82	10.85
517.275	11
517.73	11.12
518.185	12.91
518.64	13.17
519.095	12.82
519.55	12.57
520.005	10.8
520.46	10.65
520.915	11.15
521.37	11.8
521.825	12.47
522.28	10.65
522.734	12.76
523.189	10.6
523.644	11.76
524.099	11.94
524.553	12.71
525.008	12.84
525.462	12.54
525.917	12.48
526.372	12.55
526.826	13.35
527.281	12.85
527.735	11.4
528.19	11.73
528.644	11.67
529.098	11.68
529.553	10.94
530.007	11.92
530.461	11.04
530.916	10.74
531.37	11.32
531.824	11.75
532.278	11.88
532.732	12.21
533.186	11.41
533.641	12.5
534.095	12.98
534.549	12.26
535.003	12.55
535.457	13.28
535.911	13.39
536.365	12.08
536.818	12.06
537.272	13.25
537.726	13.42
538.18	10.88
538.634	12.18
539.087	12.84
539.541	11.43
539.995	12.59
540.449	11.91
540.902	11.88
541.356	11.3
541.809	12.44
542.263	11.46
542.716	12.38
543.17	12.13
543.623	14.34
544.077	11.4
544.53	12.47
544.984	11.36
545.437	12.39
545.89	11.18
546.344	11.54
546.797	13.39
547.25	11.59
547.703	12.23
548.157	11.33
548.61	13.75
549.063	14.48
549.516	12.49
549.969	13.13
550.422	12.62
550.875	12.92
551.328	13.8
551.781	12.83
552.234	12.75
552.687	12.57
553.14	12.87
553.592	11.42
554.045	14.06
554.498	12.72
554.951	11.15
555.404	13.54
555.856	13.8
556.309	13.65
556.762	12.99
557.214	12.31
557.667	13.43
558.119	13.63
558.572	11.76
559.024	13.87
559.477	13.7
559.929	12.89
560.382	12.78
560.834	12.83
561.286	11.96
561.739	12.39
562.191	12.91
562.643	13.11
563.095	13.42
563.548	12.77
564	12.92
564.452	12.89
564.904	13.64
565.356	12.72
565.808	14.51
566.26	13.14
566.712	12.82
567.164	13.3
567.616	13.45
568.068	14.01
568.52	14.56
568.972	13.63
569.424	12.81
569.876	13.64
570.327	12.99
570.779	13.83
571.231	13.88
571.682	12.67
572.134	13.48
572.586	14.02
573.037	13.32
573.489	12.92
573.941	13.67
574.392	13.23
574.844	13.42
575.295	14.33
575.746	12.83
576.198	13.94
576.649	14.05
577.101	12.73
577.552	14.74
578.003	13.6
578.454	13.05
578.906	13.9
579.357	13.35
579.808	13.15
580.259	13.72
580.71	14.96
581.161	13.65
581.612	13.85
582.064	12.39
582.515	14.87
582.965	14.25
583.416	13.6
583.867	13.6
584.318	14.58
584.769	14.06
585.22	13.57
585.671	13.25
586.122	14.03
586.572	14.35
587.023	14.96
587.474	13.86
587.924	15.02
588.375	13.21
588.826	13.78
589.276	14.13
589.727	13.64
590.177	13.65
590.628	14.4
591.078	13.64
591.529	14.47
591.979	13.65
592.429	13.9
592.88	15.51
593.33	14.19
593.78	13.96
594.231	13.44
594.681	13.96
595.131	14.73
595.581	14.57
596.031	14.51
596.481	14.6
596.932	13.62
597.382	14.39
597.832	15.53
598.282	14.64
598.732	14.44
599.182	13.43
599.632	14.18
600.081	14.31
600.531	14.32
600.981	14.49
601.431	14.64
601.881	14.05
602.33	14.12
602.78	14.59
603.23	15.34
603.679	14
604.129	14.26
604.579	14.11
605.028	14.8
605.478	14.71
605.927	15.07
606.377	14.34
606.826	15
607.276	14.4
607.725	14.38
608.175	14.63
608.624	14.8
609.073	14.36
609.522	14.25
609.972	14.54
610.421	14.96
610.87	14.33
611.319	15.12
611.768	14.98
612.218	14.39
612.667	15.12
613.116	13.88
613.565	14.31
614.014	14.72
614.463	14.97
614.912	14.59
615.361	14.46
615.81	13.64
616.258	14.74
616.707	16
617.156	14.91
617.605	13.72
618.054	14.68
618.502	13.73
618.951	14.59
619.4	14.03
619.848	14.92
620.297	14.61
620.745	16.51
621.194	14.67
621.642	14.3
622.091	13.96
622.539	14.31
622.988	14.56
623.436	15.57
623.885	14.31
624.333	14.69
624.781	15.59
625.23	15.49
625.678	15.4
626.126	14.85
626.574	14.76
627.022	15.04
627.471	14.92
627.919	13.65
628.367	14.4
628.815	14.55
629.263	15.14
629.711	14.65
630.159	15.54
630.607	14.86
631.055	14.76
631.503	14.52
631.95	15.39
632.398	14.64
632.846	15.27
633.294	15.19
633.742	15.49
634.189	15.18
634.637	14.44
635.085	14.92
635.532	14.79
635.98	14.71
636.427	14.73
636.875	14.57
637.323	15.66
637.77	14.82
638.217	15.73
638.665	14.69
639.112	15.27
639.56	14.43
640.007	15.28
640.454	15.32
640.902	15.39
641.349	15.37
641.796	15.06
642.243	15.52
642.69	14.79
643.138	15.32
643.585	15.58
644.032	14.56
644.479	15.13
644.926	15.43
645.373	14.23
645.82	16.37
646.267	15.3
646.714	14.93
647.161	16.1
647.607	14.51
648.054	15.12
648.501	15.47
648.948	15.26
649.395	15.37
649.841	15.85
650.288	15.3
650.735	16.34
651.181	15.12
651.628	15.8
652.075	15.24
652.521	15
652.968	15.04
653.414	15
653.861	15.58
654.307	16.01
654.753	14.33
655.2	16.01
655.646	15.33
656.092	14.88
656.539	15.71
656.985	15.39
657.431	15.61
657.877	15.55
658.324	15.81
658.77	16.29
659.216	16.11
659.662	15.89
660.108	15.53
660.554	15.3
661	16.22
661.446	16.1
661.892	15.88
662.338	16.15
662.784	16.52
663.23	16.25
663.675	16.45
664.121	16.47
664.567	16.65
665.013	16.07
665.458	16.58
665.904	16.02
666.35	16.54
666.795	15.72
667.241	16.54
667.687	16.38
668.132	16.38
668.578	16.22
669.023	16.68
669.469	15.69
669.914	16.33
670.359	17.05
670.805	16.68
671.25	16.43
671.695	16.73
672.141	16.15
672.586	16.37
673.031	16.87
673.476	16.97
673.922	16.85
674.367	16.7
674.812	16.58
675.257	17.07
675.702	17.32
676.147	17.14
676.592	16.62
677.037	16.36
677.482	17.41
677.927	16.99
678.372	16.61
678.817	16.39
679.261	16.96
679.706	17.16
680.151	17.03
680.596	16.85
681.04	17.8
681.485	16.96
681.93	17.6
682.374	17.88
682.819	17.26
683.264	17.31
683.708	17.34
684.153	17.18
684.597	17.33
685.042	17.04
685.486	17.58
685.93	16.84
686.375	17.05
686.819	17.17
687.263	17.38
687.708	17.5
688.152	17.54
688.596	17.96
689.04	17.57
689.485	18.07
689.929	17.62
690.373	17.73
690.817	17.92
691.261	17.67
691.705	17.83
692.149	17.79
692.593	17.52
693.037	17.12
693.481	17.76
693.925	18.16
694.369	17.21
694.812	17.17
695.256	17.87
695.7	18.13
696.144	17.76
696.587	17.81
697.031	18.21
697.475	17.77
697.918	18.55
698.362	18.03
698.806	18.02
699.249	17.81
699.693	17.54
700.136	18.46
700.58	17.72
701.023	16.8
701.466	17.99
701.91	18.04
702.353	17.97
702.796	17.9
703.24	18.26
703.683	17.78
704.126	18.36
704.569	17.31
705.013	18.16
705.456	18.66
705.899	17.42
706.342	18.1
706.785	17.69
707.228	18.91
707.671	17.8
708.114	18.31
708.557	17.86
709	18.35
709.443	18.48
709.886	18.13
710.328	18.39
710.771	18.13
711.214	18.63
711.657	18.3
712.099	18.15
712.542	18.26
712.985	18.4
713.427	18.12
713.87	18.4
714.313	18.8
714.755	18.56
715.198	18.32
715.64	18.34
716.083	18.39
716.525	17.77
716.967	18.39
717.41	19.23
717.852	18.18
718.295	18.8
718.737	18.25
719.179	19.32
719.621	18.52
720.063	18.11
720.506	18.27
720.948	18.18
721.39	18.47
721.832	18.8
722.274	17.87
722.716	18.31
723.158	18.51
723.6	17.56
724.042	18.63
724.484	17.87
724.926	18.28
725.368	18.27
725.81	18.78
726.251	19.18
726.693	19.05
727.135	19.11
727.577	18.64
728.018	18.81
728.46	18.84
728.902	19.23
729.343	18.55
729.785	18.78
730.226	18.98
730.668	19.02
731.109	18.93
731.551	18.97
731.992	18.41
732.434	18.88
732.875	18.92
733.316	19.03
733.758	19.11
734.199	19.65
734.64	18.71
735.081	18.94
735.523	19.63
735.964	18.31
736.405	18.89
736.846	19.3
737.287	19.13
737.728	18.88
738.169	19.23
738.61	19.02
739.051	19.46
739.492	19.14
739.933	19.26
740.374	19.34
740.815	19
741.256	19.33
741.696	19.89
742.137	18.34
742.578	19.05
743.019	18.72
743.459	19.6
743.9	19.33
744.341	19.56
744.781	19.33
745.222	19.22
745.662	19.09
746.103	19.07
746.543	18.46
746.984	19.64
747.424	18.96
747.865	19.74
748.305	20.01
748.745	19.35
749.186	19.73
749.626	19.69
750.066	19.21
750.506	19.54
750.947	19.24
751.387	19.46
751.827	19.66
752.267	19.55
752.707	20.32
753.147	20.07
753.587	19.51
754.027	19.43
754.467	19.94
754.907	19.88
755.347	19.71
755.787	19.65
756.227	20.08
756.667	19.51
757.107	19.06
757.546	19.81
757.986	20.24
758.426	19.53
758.865	19.53
759.305	19.45
759.745	19.8
760.184	20.25
760.624	20.72
761.063	19.89
761.503	19.17
761.943	19.22
762.382	19.2
762.821	19.95
763.261	20.34
763.7	19.97
764.14	19.91
764.579	19.67
765.018	19.89
765.457	19.84
765.897	19.56
766.336	20.33
766.775	19.85
767.214	20.19
767.653	20.6
768.092	19.74
768.531	20.01
768.97	20
769.409	20.12
769.848	20.39
770.287	20.55
770.726	20.03
771.165	19.92
771.604	20.37
772.043	19.54
772.482	20.32
772.92	20.09
773.359	19.78
773.798	20.4
774.237	20.29
774.675	19.72
775.114	20.3
775.553	20.25
775.991	20.42
776.43	20.26
776.868	20.1
777.307	19.98
777.745	20.07
778.184	20.68
778.622	20.55
779.06	20.71
779.499	20.68
779.937	20.63
780.375	20.49
780.814	20.26
781.252	20.02
781.69	20.49
782.128	20.61
782.566	20.6
783.004	20.56
783.443	20.44
783.881	20.68
784.319	20.64
784.757	20.76
785.195	20.28
785.633	20.68
786.071	20.68
786.508	21.03
786.946	20.37
787.384	19.81
787.822	20.48
788.26	20.79
788.697	20.5
789.135	20.41
789.573	20.95
790.011	20.82
790.448	20.6
790.886	21.11
791.323	21.15
791.761	20.42
792.198	20.8
792.636	20.8
793.073	20.75
793.511	20.87
793.948	20.33
794.386	21.03
794.823	21.43
795.26	20.3
795.698	21.24
796.135	21.16
796.572	21.46
797.009	20.37
797.446	20.94
797.884	21.66
798.321	20.51
798.758	20.85
799.195	21.37
799.632	20.51
800.069	21.55
800.506	21.28
800.943	21.21
801.38	21
801.817	21.43
802.254	20.99
802.69	21.26
803.127	21.12
803.564	21.53
804.001	21.37
804.438	21.82
804.874	21.06
805.311	21.41
805.748	21.07
806.184	20.94
806.621	21.25
807.057	21.68
807.494	21.46
807.93	21.34
808.367	21.7
808.803	21.54
809.24	21.55
