Data from JCR0032_WhiteVentral_Reflection_00001.txt Node
Date: Fri Jul 31 14:50:01 ACST 2020
User: Stacey Dix
Spectrometer: MAYP113282
Scans to average: 1
Trigger mode: 0
Integration Time (sec): 1.000000E-1
Electric dark correction enabled: true
Boxcar width: 0
XAxis mode: Wavelengths
Number of Pixels in Spectrum: 2068
>>>>>Begin Spectral Data<<<<<
198.791	0
199.266	38.89
199.74	333.33
200.215	-233.33
200.69	48.43
201.164	-4.4
201.639	3.56
202.114	20.33
202.588	17.89
203.063	43.45
203.537	16.67
204.012	-0.44
204.486	25.69
204.961	6.31
205.435	36.31
205.909	34.63
206.384	3.43
206.858	11.4
207.332	-8.33
207.807	19.89
208.281	23.45
208.755	26.82
209.229	19.9
209.703	5.2
210.177	15.54
210.651	2.78
211.126	27.16
211.6	13.24
212.074	13.6
212.548	30.87
213.021	23.06
213.495	18.61
213.969	21.86
214.443	22.69
214.917	24.69
215.391	4.46
215.864	17.35
216.338	-2.04
216.812	18.46
217.286	14.93
217.759	13.65
218.233	6.81
218.706	18.62
219.18	6.19
219.654	15.07
220.127	21.12
220.6	3.68
221.074	12.52
221.547	11.08
222.021	14.45
222.494	10.09
222.967	13.33
223.441	11.5
223.914	10.66
224.387	10.64
224.86	10.31
225.334	3.56
225.807	8.71
226.28	8.67
226.753	7.62
227.226	10.19
227.699	3.57
228.172	7.86
228.645	6.84
229.118	11.77
229.591	3.46
230.064	8.79
230.537	7.95
231.01	4.31
231.482	5.7
231.955	6.03
232.428	7.68
232.901	5.01
233.373	4.67
233.846	6.85
234.319	6.66
234.791	4.87
235.264	5.79
235.736	5.75
236.209	8.05
236.681	4.24
237.154	5.42
237.626	7.13
238.099	5.78
238.571	5.88
239.044	5.89
239.516	4.93
239.988	5.78
240.46	5.95
240.933	5.65
241.405	6.34
241.877	5.84
242.349	5.28
242.821	5.8
243.293	6.75
243.765	5.61
244.237	5.11
244.71	6.12
245.181	5.65
245.653	5.9
246.125	5.29
246.597	5.46
247.069	5.85
247.541	5.43
248.013	5.32
248.485	7.03
248.956	5.12
249.428	4.88
249.9	5.62
250.371	4.35
250.843	5.72
251.315	4.54
251.786	4.73
252.258	4.84
252.729	5.32
253.201	4.95
253.672	4.38
254.144	5.06
254.615	4.51
255.086	4.51
255.558	5.51
256.029	4.96
256.5	4.63
256.972	4.41
257.443	4.98
257.914	4.46
258.385	5.35
258.856	4.28
259.327	4.79
259.799	5.27
260.27	5.07
260.741	4.57
261.212	4.81
261.683	4.67
262.154	4.8
262.624	4.77
263.095	4.28
263.566	4.49
264.037	4.81
264.508	4.47
264.979	4.57
265.449	4.87
265.92	4.87
266.391	4.69
266.861	4.18
267.332	4.38
267.803	4.59
268.273	4.28
268.744	4.58
269.214	4.6
269.685	5.28
270.155	4.4
270.626	4.76
271.096	4.65
271.566	3.85
272.037	4.42
272.507	5
272.977	5.11
273.448	5.3
273.918	4.55
274.388	4.88
274.858	5.28
275.328	4.78
275.798	4.11
276.268	4.67
276.738	5.01
277.208	5.01
277.678	4.56
278.148	4.21
278.618	4.51
279.088	4.29
279.558	3.6
280.028	4.75
280.498	4.79
280.968	4.49
281.437	4.63
281.907	4.43
282.377	4.29
282.847	4.6
283.316	3.58
283.786	4.81
284.255	3.56
284.725	3.71
285.194	3.98
285.664	4.94
286.133	4.14
286.603	4.32
287.072	4.58
287.542	4.51
288.011	4.43
288.48	4.1
288.95	4.33
289.419	4.26
289.888	3.92
290.357	4
290.827	4.53
291.296	4.37
291.765	4.23
292.234	4.71
292.703	4.57
293.172	4.16
293.641	3.96
294.11	4.3
294.579	4
295.048	4.06
295.517	4.51
295.986	4.21
296.455	4.75
296.923	4.28
297.392	4.62
297.861	4.11
298.33	4.36
298.798	3.69
299.267	3.93
299.736	3.67
300.204	4.08
300.673	3.86
301.141	4.43
301.61	4.79
302.079	4.43
302.547	4.19
303.015	3.73
303.484	4.12
303.952	4.65
304.421	4.23
304.889	4.63
305.357	4.38
305.825	4.45
306.294	3.84
306.762	3.69
307.23	4.58
307.698	3.2
308.166	3.98
308.634	4.47
309.103	4.17
309.571	3.38
310.039	4.01
310.507	4.2
310.975	4.23
311.442	3.89
311.91	4.05
312.378	4.84
312.846	4.13
313.314	4.14
313.782	4.5
314.249	3.33
314.717	4.43
315.185	3.81
315.652	3.54
316.12	4.53
316.588	4.35
317.055	4.5
317.523	4.26
317.99	4.54
318.458	4.53
318.925	3.76
319.393	4.83
319.86	4.34
320.328	4.3
320.795	4.88
321.262	5.1
321.73	5.28
322.197	4.59
322.664	6.05
323.131	6.12
323.598	5.66
324.066	6.06
324.533	6.76
325	7.6
325.467	6.87
325.934	7.9
326.401	7.96
326.868	8.37
327.335	9.47
327.802	9.63
328.269	10.09
328.735	10.73
329.202	10.89
329.669	11.95
330.136	11.43
330.603	13.49
331.069	12.88
331.536	13.27
332.003	13.98
332.469	14.18
332.936	14.75
333.402	14.19
333.869	14
334.336	15.1
334.802	15
335.268	16.08
335.735	15.54
336.201	14.85
336.668	15.4
337.134	16.12
337.6	13.73
338.067	15.28
338.533	14.95
338.999	13.82
339.465	14.74
339.931	15.23
340.398	15.24
340.864	15.44
341.33	15.35
341.796	16.53
342.262	14.42
342.728	15.45
343.194	15.59
343.66	16.69
344.126	15.33
344.592	15.86
345.057	15.01
345.523	15.36
345.989	14.42
346.455	14.86
346.921	15.29
347.386	15.46
347.852	17.66
348.318	15.23
348.783	15.19
349.249	15.56
349.714	15.01
350.18	15.79
350.645	15.23
351.111	15.61
351.576	15
352.042	14.98
352.507	15.84
352.973	14.6
353.438	14.3
353.903	15.89
354.369	16.01
354.834	15.07
355.299	16.24
355.764	15.53
356.229	15.73
356.695	15.73
357.16	15.68
357.625	15.46
358.09	15.02
358.555	16.58
359.02	15.56
359.485	15.27
359.95	15.82
360.415	15.76
360.879	15.04
361.344	14.69
361.809	15.48
362.274	15.53
362.739	15.98
363.203	16.07
363.668	16.58
364.133	15.53
364.597	15.66
365.062	16.94
365.527	17.3
365.991	17.05
366.456	15.83
366.92	15.56
367.385	16.55
367.849	17.59
368.314	17.26
368.778	16.7
369.242	16.79
369.707	16.37
370.171	16.86
370.635	17.87
371.1	17.53
371.564	16.06
372.028	16.82
372.492	18.28
372.956	16.77
373.42	19.9
373.884	17.33
374.348	17.87
374.812	18.6
375.276	16.87
375.74	17.51
376.204	18.05
376.668	17.09
377.132	18.07
377.596	18
378.06	18.19
378.524	17.34
378.987	19.38
379.451	18.73
379.915	18.62
380.378	19.24
380.842	19.8
381.306	18.73
381.769	18.55
382.233	20.72
382.696	18.83
383.16	19.98
383.623	19.17
384.087	20.79
384.55	18.76
385.014	19.48
385.477	18.67
385.94	18.75
386.404	20.29
386.867	19.59
387.33	19.36
387.793	21.27
388.256	20.57
388.72	20.27
389.183	19.99
389.646	19.5
390.109	21.52
390.572	20.3
391.035	20.28
391.498	20.56
391.961	19.49
392.424	20.64
392.887	19.56
393.35	20.04
393.812	20.99
394.275	21.24
394.738	20.6
395.201	20.54
395.664	22
396.126	19.82
396.589	21.72
397.052	21.05
397.514	21.13
397.977	19.81
398.439	20.35
398.902	21.69
399.364	20.87
399.827	20.57
400.289	19.74
400.752	21.55
401.214	22.2
401.676	22.31
402.139	20.33
402.601	20.51
403.063	20.78
403.525	21.69
403.988	21.87
404.45	20.32
404.912	21.85
405.374	20.56
405.836	21.08
406.298	21.53
406.76	21.5
407.222	22.48
407.684	20.26
408.146	19.52
408.608	20.25
409.07	21.52
409.532	19.85
409.994	20.72
410.456	21
410.917	20.23
411.379	20.36
411.841	21.19
412.303	20.67
412.764	20.72
413.226	20.26
413.687	20.82
414.149	22.37
414.611	20.69
415.072	21.41
415.534	20.93
415.995	20.12
416.457	22.52
416.918	22.43
417.379	21.95
417.841	22.08
418.302	20.71
418.763	21.97
419.225	21.72
419.686	22.84
420.147	20.72
420.608	21.54
421.069	22.03
421.53	22.32
421.991	22.02
422.453	21.86
422.914	22.4
423.375	22.08
423.836	21.44
424.297	23.05
424.757	22.14
425.218	22.2
425.679	22.05
426.14	22.55
426.601	21.67
427.062	22.26
427.522	23.24
427.983	21.44
428.444	23.33
428.904	21.78
429.365	21.87
429.826	22.45
430.286	22.07
430.747	22.06
431.207	24.05
431.668	22.61
432.128	22.48
432.589	22.91
433.049	22.3
433.509	22.11
433.97	21.3
434.43	19.97
434.89	21.23
435.351	22.9
435.811	23
436.271	21.84
436.731	20.84
437.191	20.96
437.651	21.71
438.112	23.31
438.572	23.25
439.032	21.24
439.492	22.71
439.952	21.41
440.412	22.3
440.871	22.87
441.331	23.6
441.791	22.29
442.251	21.85
442.711	23.7
443.171	23.85
443.63	21.9
444.09	22.32
444.55	22.87
445.009	22.96
445.469	21.19
445.929	23.31
446.388	23.47
446.848	23.04
447.307	22.26
447.767	23.65
448.226	23.25
448.686	21.17
449.145	24.48
449.604	20.63
450.064	21.66
450.523	22.28
450.982	22.99
451.442	22.84
451.901	22.94
452.36	23.75
452.819	24
453.278	22.32
453.737	24.15
454.197	24.01
454.656	23.74
455.115	23.94
455.574	21.53
456.033	23.47
456.492	25.06
456.95	23.54
457.409	24.06
457.868	22.67
458.327	25.05
458.786	24.63
459.245	21.81
459.703	22.73
460.162	24.17
460.621	23.53
461.079	21.44
461.538	23.35
461.997	23.64
462.455	23.85
462.914	23.56
463.372	21.91
463.831	23.26
464.289	24.24
464.748	22.99
465.206	22.25
465.664	23.58
466.123	24.88
466.581	22.39
467.039	22.26
467.497	23.95
467.956	22.78
468.414	22.13
468.872	22.11
469.33	23.67
469.788	23.08
470.246	25.12
470.704	19.87
471.162	23.09
471.62	24.9
472.078	22.56
472.536	23.57
472.994	21.66
473.452	22.14
473.91	21.07
474.368	21.14
474.826	23.14
475.283	21.53
475.741	21.61
476.199	20.97
476.656	22.87
477.114	22.83
477.572	21.74
478.029	20.62
478.487	23.05
478.944	22.53
479.402	22.7
479.859	22.39
480.317	22.28
480.774	21.64
481.232	24.33
481.689	21.89
482.146	23.3
482.604	22.59
483.061	21.83
483.518	22.05
483.975	21.87
484.433	21.51
484.89	23.87
485.347	22.87
485.804	21.85
486.261	21.85
486.718	22.43
487.175	23.53
487.632	23.53
488.089	22.09
488.546	19.84
489.003	22.75
489.46	23.9
489.917	21.69
490.373	22.42
490.83	21.8
491.287	21.48
491.744	23.33
492.2	25.99
492.657	23.27
493.114	22.74
493.57	23.12
494.027	21.52
494.484	23.41
494.94	23.65
495.397	24.07
495.853	22.88
496.31	22.02
496.766	20.45
497.222	21.93
497.679	22
498.135	23.3
498.591	21.98
499.048	21.87
499.504	20.6
499.96	24.88
500.416	23.11
500.872	21.42
501.329	22.83
501.785	23.4
502.241	22.58
502.697	25.62
503.153	21.33
503.609	22.95
504.065	21.86
504.521	21.27
504.977	21.96
505.432	22.53
505.888	23.39
506.344	22.09
506.8	22.66
507.256	23.1
507.711	23.46
508.167	21.77
508.623	22.52
509.078	22.23
509.534	23.02
509.99	22.77
510.445	22.34
510.901	25.59
511.356	23.83
511.812	22.17
512.267	22.04
512.722	23.28
513.178	22.5
513.633	22.87
514.089	23.06
514.544	22.64
514.999	24.38
515.454	22.87
515.91	23.43
516.365	23.57
516.82	25.99
517.275	23.19
517.73	21.88
518.185	23.06
518.64	23.86
519.095	23.34
519.55	24
520.005	23.14
520.46	22.69
520.915	23.74
521.37	24.48
521.825	23.53
522.28	24.31
522.734	24.32
523.189	23.36
523.644	23.22
524.099	25.03
524.553	24.29
525.008	22.42
525.462	25.22
525.917	23.55
526.372	23.56
526.826	22.28
527.281	25.88
527.735	23.83
528.19	23.76
528.644	24.43
529.098	22.99
529.553	25.63
530.007	23.47
530.461	25.32
530.916	23.67
531.37	23.09
531.824	25.38
532.278	23.57
532.732	25.04
533.186	23.6
533.641	26.45
534.095	25.57
534.549	25.18
535.003	24.96
535.457	25.38
535.911	27.59
536.365	24.5
536.818	24.4
537.272	24.66
537.726	24.45
538.18	24.35
538.634	25.53
539.087	25.49
539.541	25.24
539.995	24.84
540.449	25.01
540.902	25.29
541.356	24.2
541.809	26.3
542.263	26.38
542.716	24.49
543.17	24.11
543.623	24.42
544.077	25.7
544.53	24.6
544.984	23.55
545.437	24.7
545.89	26.69
546.344	26.48
546.797	25.53
547.25	25.18
547.703	25.72
548.157	25.67
548.61	25.73
549.063	25.58
549.516	25.32
549.969	27.3
550.422	25.68
550.875	26.49
551.328	27.88
551.781	27.24
552.234	26.97
552.687	27.29
553.14	27.24
553.592	26.96
554.045	25.22
554.498	28.54
554.951	26.27
555.404	25.99
555.856	26.78
556.309	27.02
556.762	28.4
557.214	26.17
557.667	26.3
558.119	26.35
558.572	28.13
559.024	25.65
559.477	28.62
559.929	27.52
560.382	26.42
560.834	28.91
561.286	26.98
561.739	28.06
562.191	25.1
562.643	26.3
563.095	28.04
563.548	27.81
564	28.09
564.452	26.4
564.904	26.63
565.356	26.56
565.808	25.59
566.26	27.2
566.712	27.92
567.164	26.72
567.616	28.39
568.068	27.79
568.52	27.07
568.972	28.73
569.424	28.13
569.876	28.65
570.327	27.47
570.779	26.56
571.231	26.96
571.682	29.09
572.134	28.45
572.586	26.76
573.037	28.46
573.489	28.42
573.941	29.71
574.392	28.5
574.844	27.95
575.295	27.57
575.746	28.09
576.198	27.69
576.649	28.44
577.101	29.47
577.552	27.62
578.003	29.3
578.454	28.06
578.906	27.97
579.357	28.66
579.808	29.21
580.259	28.05
580.71	28.38
581.161	28.13
581.612	28.92
582.064	28.57
582.515	28.62
582.965	28.96
583.416	28.29
583.867	28.19
584.318	27.05
584.769	27.74
585.22	28.2
585.671	28.28
586.122	28.91
586.572	27.48
587.023	28.23
587.474	28.55
587.924	28.61
588.375	28.95
588.826	27.84
589.276	28.29
589.727	28.48
590.177	28.04
590.628	28.15
591.078	27.2
591.529	28.21
591.979	29.2
592.429	28.24
592.88	27.82
593.33	28.98
593.78	27.91
594.231	28.89
594.681	28.66
595.131	28.66
595.581	28.38
596.031	28.09
596.481	29.24
596.932	28.96
597.382	27.94
597.832	27.42
598.282	28.2
598.732	29.82
599.182	26.87
599.632	29.57
600.081	28.12
600.531	29.12
600.981	29.17
601.431	27.34
601.881	28.79
602.33	29.4
602.78	27.29
603.23	29.31
603.679	27.7
604.129	29.21
604.579	27.67
605.028	28.04
605.478	27.77
605.927	28.97
606.377	28.55
606.826	28.43
607.276	29.04
607.725	28.79
608.175	27.26
608.624	27.36
609.073	27.82
609.522	28.95
609.972	28.28
610.421	28.35
610.87	27.79
611.319	28.43
611.768	28.64
612.218	27.87
612.667	28.38
613.116	29.48
613.565	28.72
614.014	28.3
614.463	29.44
614.912	28.49
615.361	29.28
615.81	28.82
616.258	29.4
616.707	29.05
617.156	27.91
617.605	28.15
618.054	28.12
618.502	27.74
618.951	28.34
619.4	28.99
619.848	28.22
620.297	28.75
620.745	28.94
621.194	28.63
621.642	28.84
622.091	28.41
622.539	28.37
622.988	28.21
623.436	27.66
623.885	28.74
624.333	29.15
624.781	28.73
625.23	29.15
625.678	28.7
626.126	28.85
626.574	27.96
627.022	28.04
627.471	29.25
627.919	28.46
628.367	28.1
628.815	28.97
629.263	28.88
629.711	28.62
630.159	28.73
630.607	28.06
631.055	28.76
631.503	29.18
631.95	27.94
632.398	29.02
632.846	28.92
633.294	29.05
633.742	28.25
634.189	28.58
634.637	28.31
635.085	28.69
635.532	28.37
635.98	28.2
636.427	28.44
636.875	27.97
637.323	28.86
637.77	27.84
638.217	28.8
638.665	27.74
639.112	29.44
639.56	28.08
640.007	28.7
640.454	27.95
640.902	27.47
641.349	27.76
641.796	29.37
642.243	28.7
642.69	27.34
643.138	29.12
643.585	29.41
644.032	29.7
644.479	28.05
644.926	28.01
645.373	28.45
645.82	28.55
646.267	28.15
646.714	28.47
647.161	27.57
647.607	28.63
648.054	28.76
648.501	28.56
648.948	28.08
649.395	28.79
649.841	27.79
650.288	28.84
650.735	28.92
651.181	29.18
651.628	28.45
652.075	27.43
652.521	28.6
652.968	29.23
653.414	28.42
653.861	28.62
654.307	27.66
654.753	27.46
655.2	29.95
655.646	28.38
656.092	28.47
656.539	28.71
656.985	28.75
657.431	28.42
657.877	29.14
658.324	28.45
658.77	29.15
659.216	28.69
659.662	28.71
660.108	28.09
660.554	27.74
661	28.57
661.446	28.15
661.892	28.39
662.338	28.07
662.784	29.28
663.23	29.22
663.675	27.91
664.121	28.63
664.567	28.51
665.013	28.19
665.458	28.43
665.904	29.2
666.35	28.02
666.795	28.63
667.241	28.96
667.687	27.98
668.132	28.73
668.578	28.02
669.023	28.99
669.469	28.75
669.914	28.88
670.359	28.03
670.805	29.2
671.25	28.91
671.695	28.83
672.141	28.59
672.586	27.86
673.031	28.55
673.476	29.03
673.922	28.96
674.367	29
674.812	28.51
675.257	29.5
675.702	28.19
676.147	28.74
676.592	28.21
677.037	28.93
677.482	28.94
677.927	28.38
678.372	28.41
678.817	28.49
679.261	27.74
679.706	29
680.151	28.58
680.596	28.78
681.04	28.29
681.485	29.15
681.93	29.11
682.374	28.76
682.819	28.48
683.264	28.56
683.708	29.02
684.153	29.09
684.597	28.73
685.042	28.75
685.486	27.67
685.93	27.9
686.375	27.79
686.819	28.69
687.263	29.2
687.708	29.02
688.152	29.29
688.596	28.51
689.04	28.29
689.485	29.43
689.929	29.07
690.373	28.6
690.817	28.96
691.261	28.65
691.705	27.56
692.149	28.72
692.593	28.18
693.037	28.84
693.481	28.43
693.925	28.96
694.369	28.65
694.812	28.61
695.256	28.84
695.7	28.68
696.144	28.6
696.587	28.31
697.031	28.6
697.475	28.78
697.918	29.35
698.362	28.64
698.806	28.98
699.249	29.37
699.693	29.04
700.136	29.05
700.58	28.27
701.023	28.69
701.466	28.72
701.91	28.16
702.353	28.45
702.796	28.75
703.24	28.94
703.683	28.95
704.126	29.47
704.569	27.91
705.013	28.98
705.456	28.02
705.899	28.5
706.342	28.24
706.785	27.98
707.228	28.95
707.671	28.52
708.114	28.71
708.557	28.56
709	28.96
709.443	29.14
709.886	28.51
710.328	29.23
710.771	28.7
711.214	28.27
711.657	28.88
712.099	28.31
712.542	28.02
712.985	29.17
713.427	28.48
713.87	29.24
714.313	29.59
714.755	29.5
715.198	28.7
715.64	28.46
716.083	28.41
716.525	28.16
716.967	28.17
717.41	28.3
717.852	28.51
718.295	28.42
718.737	29.44
719.179	28.78
719.621	29.71
720.063	29.34
720.506	28.07
720.948	28.87
721.39	29.45
721.832	28.89
722.274	29.73
722.716	29.48
723.158	28.66
723.6	27.91
724.042	29.1
724.484	27.9
724.926	29.21
725.368	27.88
725.81	28.32
726.251	27.88
726.693	28.29
727.135	28.69
727.577	28.28
728.018	29.47
728.46	28.95
728.902	28.35
729.343	28.61
729.785	28.71
730.226	27.99
730.668	28.22
731.109	29.39
731.551	28.45
731.992	28.38
732.434	28.23
732.875	28.48
733.316	28.72
733.758	28.5
734.199	28.78
734.64	29.43
735.081	28.7
735.523	28.81
735.964	27.96
736.405	28.22
736.846	29.49
737.287	28.31
737.728	28.15
738.169	28.49
738.61	29.3
739.051	29.34
739.492	28.5
739.933	28.56
740.374	29.24
740.815	29.42
741.256	29.19
741.696	29.08
742.137	28.08
742.578	29.23
743.019	27.82
743.459	28.33
743.9	28.78
744.341	28.08
744.781	28.43
745.222	28.29
745.662	28.82
746.103	28.82
746.543	29.62
746.984	28.43
747.424	28.11
747.865	28.56
748.305	28.19
748.745	28.89
749.186	28.37
749.626	28.65
750.066	28.76
750.506	28.69
750.947	28.77
751.387	28.83
751.827	28.25
752.267	29.03
752.707	28.73
753.147	28.91
753.587	29.01
754.027	28.2
754.467	28.6
754.907	28.79
755.347	28.09
755.787	28.96
756.227	28.41
756.667	29.03
757.107	27.46
757.546	28.67
757.986	27.96
758.426	28.77
758.865	28.54
759.305	28.95
759.745	28.15
760.184	28.26
760.624	28.46
761.063	28.87
761.503	29.02
761.943	28.34
762.382	28.57
762.821	28.47
763.261	28.95
763.7	27.78
764.14	28.35
764.579	28.73
765.018	28.34
765.457	28.71
765.897	28.61
766.336	28.78
766.775	28.97
767.214	27.96
767.653	28.75
768.092	28.61
768.531	28.8
768.97	28.59
769.409	29.03
769.848	29.03
770.287	27.85
770.726	29.22
771.165	28
771.604	28.6
772.043	28.63
772.482	28.83
772.92	28.22
773.359	28.68
773.798	28.67
774.237	28.55
774.675	28.43
775.114	28.23
775.553	29.11
775.991	28.05
776.43	28.81
776.868	28.35
777.307	28.03
777.745	28.96
778.184	28.79
778.622	28.65
779.06	28.46
779.499	28.85
779.937	29.27
780.375	28.26
780.814	29.44
781.252	28.52
781.69	28.37
782.128	28.91
782.566	28.15
783.004	28.94
783.443	28.55
783.881	28.61
784.319	28.01
784.757	28.57
785.195	29
785.633	28.8
786.071	28.37
786.508	28.56
786.946	28.47
787.384	28.32
787.822	28.69
788.26	28.34
788.697	29
789.135	28.11
789.573	28.75
790.011	28.2
790.448	28.6
790.886	28.38
791.323	28.59
791.761	28.4
792.198	28.57
792.636	28.17
793.073	28.64
793.511	29.08
793.948	29.01
794.386	27.95
794.823	28.26
795.26	28.66
795.698	28.51
796.135	28.27
796.572	28.83
797.009	28.07
797.446	28.61
797.884	28.4
798.321	28.13
798.758	28.56
799.195	28.2
799.632	28.86
800.069	29.08
800.506	28.12
800.943	28.7
801.38	28.6
801.817	28.62
802.254	28.22
802.69	28.51
803.127	28.77
803.564	28.28
804.001	28.44
804.438	29
804.874	28.95
805.311	29.19
805.748	28.65
806.184	28.61
806.621	28.72
807.057	28.34
807.494	28.36
807.93	29.01
808.367	28.85
808.803	28.65
809.24	28.5
809.676	28.82
810.112	28.79
810.549	28.35
810.985	28.79
811.421	28.39
811.857	28.99
812.294	28.37
