Data from JCR0016_YellowVentral_Reflection_00001.txt Node
Date: Thu Jul 23 15:39:04 ACST 2020
User: Stacey Dix
Spectrometer: MAYP113282
Scans to average: 1
Trigger mode: 0
Integration Time (sec): 1.000000E-1
Electric dark correction enabled: true
Boxcar width: 0
XAxis mode: Wavelengths
Number of Pixels in Spectrum: 2068
>>>>>Begin Spectral Data<<<<<
198.791	-2066.67
199.266	866.67
199.74	47.62
200.215	-19.05
200.69	-0.8
201.164	57.78
201.639	38.5
202.114	43.5
202.588	63.37
203.063	28.07
203.537	55.91
204.012	32.96
204.486	19.66
204.961	38.31
205.435	36.86
205.909	20.35
206.384	47.17
206.858	61.17
207.332	23.77
207.807	9.24
208.281	36.01
208.755	12.01
209.229	37.66
209.703	31.83
210.177	57.55
210.651	24.33
211.126	31.26
211.6	43.31
212.074	40.92
212.548	56.17
213.021	53.43
213.495	46.61
213.969	-15.69
214.443	5.68
214.917	43.5
215.391	37.48
215.864	45.22
216.338	52.09
216.812	53.49
217.286	59.37
217.759	45.85
218.233	23.31
218.706	33.14
219.18	57.22
219.654	74.04
220.127	30.62
220.6	49.46
221.074	53.38
221.547	35.21
222.021	58.59
222.494	66.67
222.967	40.91
223.441	52.71
223.914	46.55
224.387	56.93
224.86	52.75
225.334	60.33
225.807	53.85
226.28	41.86
226.753	52.83
227.226	55.21
227.699	71.64
228.172	64.81
228.645	49.96
229.118	53.12
229.591	55.31
230.064	55.03
230.537	58.45
231.01	60.28
231.482	57.46
231.955	59.87
232.428	62.23
232.901	61.12
233.373	56.82
233.846	55.39
234.319	56.18
234.791	55.42
235.264	60.56
235.736	50.35
236.209	51.92
236.681	59.3
237.154	53.77
237.626	55.53
238.099	49.41
238.571	52.05
239.044	50.26
239.516	54.84
239.988	52.92
240.46	49.8
240.933	54.43
241.405	54.32
241.877	50.05
242.349	49.03
242.821	54.4
243.293	55.46
243.765	45.9
244.237	51.48
244.71	47.14
245.181	51.07
245.653	53.88
246.125	46.92
246.597	48.15
247.069	50.59
247.541	49.99
248.013	46.42
248.485	46.42
248.956	46
249.428	42.75
249.9	46.66
250.371	42.01
250.843	49.99
251.315	47.96
251.786	43.22
252.258	43.7
252.729	46.57
253.201	46.52
253.672	45.46
254.144	46.38
254.615	45.6
255.086	44.83
255.558	44.84
256.029	42.6
256.5	45.49
256.972	44.91
257.443	43.14
257.914	46.92
258.385	43.97
258.856	41.16
259.327	45.07
259.799	47.5
260.27	43.92
260.741	42.4
261.212	42.88
261.683	42.9
262.154	43.35
262.624	44.24
263.095	42.48
263.566	44.43
264.037	42.32
264.508	46.69
264.979	42.19
265.449	45.43
265.92	43.52
266.391	43.22
266.861	43.47
267.332	45.11
267.803	43
268.273	45.87
268.744	45.88
269.214	44.6
269.685	44.23
270.155	41.05
270.626	45.16
271.096	42.28
271.566	43.92
272.037	43.49
272.507	43.36
272.977	45.55
273.448	43.88
273.918	44.87
274.388	42.79
274.858	42.29
275.328	43.39
275.798	43.88
276.268	45.46
276.738	46.62
277.208	45.78
277.678	44.5
278.148	45.84
278.618	41.88
279.088	44.47
279.558	41.78
280.028	43.25
280.498	42.16
280.968	43.44
281.437	43.23
281.907	41.26
282.377	43.35
282.847	43.5
283.316	42.58
283.786	44.26
284.255	43.79
284.725	43.8
285.194	42.6
285.664	42.83
286.133	41.97
286.603	43.17
287.072	43.15
287.542	41.27
288.011	38.55
288.48	42.8
288.95	40.93
289.419	44.11
289.888	41.12
290.357	42.24
290.827	42.39
291.296	45.04
291.765	41.25
292.234	40.35
292.703	42.61
293.172	42.48
293.641	39.25
294.11	42.93
294.579	40.58
295.048	39.53
295.517	40.89
295.986	40.03
296.455	39.84
296.923	37.55
297.392	40.11
297.861	36.8
298.33	41.08
298.798	40.56
299.267	40.68
299.736	40.67
300.204	40.78
300.673	39.64
301.141	39.22
301.61	39.15
302.079	39.41
302.547	36.78
303.015	39.69
303.484	39.87
303.952	39.97
304.421	38.35
304.889	39.05
305.357	39.94
305.825	38.51
306.294	39.85
306.762	39.54
307.23	36.02
307.698	38.13
308.166	36.53
308.634	37.48
309.103	36.68
309.571	36.16
310.039	35.85
310.507	37.31
310.975	34.43
311.442	39.54
311.91	37.55
312.378	37.62
312.846	36.06
313.314	38.65
313.782	36.93
314.249	35.81
314.717	38.89
315.185	38.18
315.652	34.48
316.12	38.25
316.588	36.19
317.055	36.38
317.523	33.77
317.99	37.14
318.458	37.75
318.925	36.65
319.393	37.38
319.86	34.32
320.328	35.91
320.795	35.75
321.262	37.09
321.73	34.31
322.197	33.63
322.664	37.07
323.131	34.63
323.598	33.75
324.066	36.41
324.533	36.7
325	36.73
325.467	36.3
325.934	36.4
326.401	39.74
326.868	35.87
327.335	35.5
327.802	34.3
328.269	38.83
328.735	38.75
329.202	35.82
329.669	36.69
330.136	39.22
330.603	38.22
331.069	37.87
331.536	38.37
332.003	38.36
332.469	38.49
332.936	38.27
333.402	37.3
333.869	38.38
334.336	37.99
334.802	38.25
335.268	40.85
335.735	39.47
336.201	36.11
336.668	39.45
337.134	39.02
337.6	40.14
338.067	38.82
338.533	37.37
338.999	36.96
339.465	36.9
339.931	35.67
340.398	36.85
340.864	36.38
341.33	38.79
341.796	35.91
342.262	38.52
342.728	35.74
343.194	37.39
343.66	36.7
344.126	37.67
344.592	35.69
345.057	38.08
345.523	36.28
345.989	34.81
346.455	36.82
346.921	34.74
347.386	37.66
347.852	34.86
348.318	36.34
348.783	34.42
349.249	35.94
349.714	37.04
350.18	33.84
350.645	36.41
351.111	33.37
351.576	34.7
352.042	36.76
352.507	32.25
352.973	34.45
353.438	33.86
353.903	34.56
354.369	35.12
354.834	32.42
355.299	33.3
355.764	32.68
356.229	33.49
356.695	32.91
357.16	34.24
357.625	33.13
358.09	34.52
358.555	32.49
359.02	35.56
359.485	33.79
359.95	31.4
360.415	34.46
360.879	32.5
361.344	31.75
361.809	33.14
362.274	32.72
362.739	29.76
363.203	34.43
363.668	32.44
364.133	31.79
364.597	30.18
365.062	33.63
365.527	30.91
365.991	28.64
366.456	30.77
366.92	31.67
367.385	29.25
367.849	32.12
368.314	31.92
368.778	29.23
369.242	32.07
369.707	30.75
370.171	32.78
370.635	30.11
371.1	33.16
371.564	30.21
372.028	32.44
372.492	32.2
372.956	28.59
373.42	29.28
373.884	31.99
374.348	28.79
374.812	27.51
375.276	29.57
375.74	32.08
376.204	30.44
376.668	31.11
377.132	28.82
377.596	30.76
378.06	29.03
378.524	29.97
378.987	29.94
379.451	28.63
379.915	29.24
380.378	28.74
380.842	29.44
381.306	27
381.769	27.39
382.233	28.07
382.696	32.05
383.16	28.05
383.623	27.46
384.087	28.5
384.55	30.4
385.014	26.42
385.477	27.36
385.94	26.19
386.404	28.24
386.867	29.23
387.33	28.97
387.793	30.92
388.256	26.03
388.72	26.21
389.183	29.52
389.646	28.78
390.109	26.88
390.572	27.25
391.035	26.82
391.498	28.35
391.961	27.97
392.424	26.98
392.887	25.73
393.35	28.67
393.812	29.36
394.275	25.5
394.738	28.38
395.201	27.32
395.664	26.84
396.126	25.95
396.589	26.25
397.052	26.36
397.514	26.45
397.977	25.41
398.439	27.85
398.902	26.81
399.364	27.71
399.827	24.8
400.289	26.19
400.752	24.75
401.214	24.8
401.676	25.47
402.139	25.58
402.601	26.88
403.063	26.33
403.525	24.06
403.988	25.65
404.45	26.59
404.912	26.73
405.374	26.27
405.836	24.89
406.298	25.97
406.76	26.74
407.222	26.7
407.684	24.37
408.146	26.17
408.608	24.1
409.07	25.52
409.532	23.84
409.994	24
410.456	25.75
410.917	25.14
411.379	25
411.841	25.25
412.303	24.2
412.764	24.62
413.226	23.89
413.687	25.12
414.149	24.67
414.611	24.54
415.072	22.94
415.534	24.51
415.995	23.44
416.457	24.37
416.918	24
417.379	24.42
417.841	23.6
418.302	26.59
418.763	24.88
419.225	26.23
419.686	22.65
420.147	23.14
420.608	22.46
421.069	23.45
421.53	23.78
421.991	24.05
422.453	24.53
422.914	25.46
423.375	23.4
423.836	24.58
424.297	23.36
424.757	24.52
425.218	23.05
425.679	24.69
426.14	23.01
426.601	26.02
427.062	19.23
427.522	23.94
427.983	23.23
428.444	23.54
428.904	23.09
429.365	23.88
429.826	26.41
430.286	20.05
430.747	26.08
431.207	23.39
431.668	23.77
432.128	23.54
432.589	25.45
433.049	19.95
433.509	24.62
433.97	22.48
434.43	24.47
434.89	25.23
435.351	26
435.811	22.84
436.271	27.01
436.731	25.14
437.191	21.61
437.651	24.22
438.112	24.6
438.572	24.39
439.032	25.79
439.492	26.54
439.952	22.4
440.412	23.94
440.871	24.23
441.331	21.54
441.791	24.33
442.251	24.63
442.711	23.27
443.171	25.97
443.63	25.51
444.09	27.78
444.55	22.6
445.009	24.24
445.469	22.52
445.929	23.97
446.388	24.52
446.848	25.24
447.307	24.43
447.767	22.55
448.226	21.51
448.686	23.79
449.145	24.27
449.604	26.45
450.064	24.66
450.523	23.85
450.982	23.91
451.442	26.04
451.901	25.96
452.36	21.92
452.819	25.17
453.278	26.33
453.737	24.46
454.197	23.94
454.656	25.22
455.115	24.65
455.574	24.62
456.033	25.18
456.492	26.53
456.95	24.43
457.409	25.23
457.868	23.93
458.327	28.44
458.786	25.74
459.245	25.19
459.703	23.65
460.162	24.87
460.621	26.48
461.079	25.17
461.538	24.98
461.997	27.47
462.455	24.72
462.914	21.8
463.372	27.66
463.831	22.75
464.289	25.03
464.748	25.16
465.206	25.28
465.664	27.95
466.123	28.54
466.581	26.86
467.039	24.83
467.497	28.41
467.956	28.22
468.414	27.17
468.872	27.88
469.33	26.57
469.788	26.08
470.246	27.23
470.704	30.15
471.162	29.04
471.62	32.32
472.078	28.27
472.536	30.01
472.994	28.07
473.452	29.88
473.91	28.39
474.368	30.03
474.826	29.16
475.283	29.01
475.741	30.78
476.199	33.9
476.656	29.82
477.114	32.68
477.572	32.14
478.029	27.86
478.487	31.92
478.944	30.9
479.402	31.43
479.859	37.97
480.317	36.04
480.774	31.05
481.232	32.63
481.689	33.57
482.146	35.42
482.604	37.94
483.061	36.39
483.518	34.22
483.975	37.17
484.433	35.17
484.89	36.9
485.347	40.83
485.804	38.4
486.261	40.61
486.718	35.28
487.175	39.45
487.632	40.03
488.089	44.41
488.546	39.15
489.003	39.38
489.46	42.4
489.917	42.86
490.373	38.85
490.83	42.52
491.287	43.66
491.744	44.85
492.2	38.23
492.657	43.69
493.114	43.47
493.57	42.45
494.027	44.95
494.484	41.68
494.94	43.31
495.397	43.85
495.853	45.43
496.31	44.62
496.766	43.38
497.222	44.7
497.679	41.22
498.135	47.22
498.591	45.24
499.048	43.35
499.504	42.12
499.96	44
500.416	47.1
500.872	45.74
501.329	46.47
501.785	46.27
502.241	44.3
502.697	45.86
503.153	46.86
503.609	44.04
504.065	46.59
504.521	43.1
504.977	44.65
505.432	50.85
505.888	48.99
506.344	48.48
506.8	46.81
507.256	48.82
507.711	48.55
508.167	47.77
508.623	44.06
509.078	45.95
509.534	53.59
509.99	46.66
510.445	46.32
510.901	47.39
511.356	49.87
511.812	48.46
512.267	47.86
512.722	49.39
513.178	48.85
513.633	48.68
514.089	47.1
514.544	46.78
514.999	48.32
515.454	47.51
515.91	46.94
516.365	50.94
516.82	46.2
517.275	47.99
517.73	45.56
518.185	46.75
518.64	49.96
519.095	52.56
519.55	48.2
520.005	51.17
520.46	48.55
520.915	49.74
521.37	47.86
521.825	51.23
522.28	48
522.734	45.95
523.189	47.94
523.644	50.03
524.099	49.67
524.553	49.26
525.008	47.25
525.462	48.78
525.917	50.32
526.372	45.83
526.826	48.67
527.281	51.4
527.735	48.87
528.19	49.88
528.644	47.46
529.098	50.33
529.553	46.12
530.007	48.98
530.461	47.62
530.916	49.04
531.37	49.95
531.824	48.59
532.278	47.89
532.732	48.06
533.186	46.71
533.641	49.47
534.095	49.39
534.549	48.32
535.003	45.81
535.457	48.52
535.911	48.58
536.365	50.32
536.818	49.79
537.272	49.53
537.726	49.31
538.18	48.02
538.634	52.02
539.087	47.93
539.541	48.76
539.995	47.91
540.449	51.14
540.902	49.7
541.356	48.75
541.809	48.85
542.263	46.35
542.716	49.08
543.17	49.53
543.623	47.61
544.077	49.45
544.53	49.3
544.984	48.02
545.437	49.13
545.89	53.7
546.344	49.13
546.797	48.49
547.25	49.48
547.703	49.51
548.157	50.27
548.61	48.37
549.063	46.84
549.516	48.87
549.969	49.88
550.422	49.51
550.875	49.4
551.328	48.57
551.781	48.45
552.234	47.28
552.687	47.83
553.14	49.28
553.592	51.36
554.045	47.29
554.498	52.73
554.951	50.64
555.404	50.71
555.856	50.98
556.309	54.85
556.762	49.43
557.214	50.09
557.667	49.29
558.119	50.22
558.572	51.24
559.024	51.84
559.477	50.93
559.929	50.62
560.382	47.75
560.834	48.93
561.286	48.12
561.739	53.02
562.191	50.2
562.643	51.86
563.095	48.68
563.548	51.51
564	49.19
564.452	50.85
564.904	51.13
565.356	51.15
565.808	50.66
566.26	52.61
566.712	53.28
567.164	52.23
567.616	51.72
568.068	48.95
568.52	49.3
568.972	49.5
569.424	49.87
569.876	50.47
570.327	52.04
570.779	49.87
571.231	49.8
571.682	48.81
572.134	49.51
572.586	49.74
573.037	50
573.489	48.38
573.941	50.15
574.392	49.43
574.844	48.3
575.295	51.77
575.746	51.33
576.198	50.68
576.649	51.34
577.101	50.41
577.552	50.24
578.003	48.45
578.454	50.96
578.906	51.22
579.357	51.72
579.808	49.73
580.259	49.8
580.71	48.27
581.161	50.71
581.612	50.68
582.064	51.93
582.515	50.44
582.965	51.24
583.416	50.78
583.867	50.42
584.318	51.47
584.769	51.48
585.22	50.77
585.671	50.28
586.122	50.85
586.572	52.04
587.023	50.87
587.474	53.13
587.924	52.18
588.375	51.75
588.826	50.12
589.276	50.99
589.727	53.1
590.177	52.03
590.628	53.59
591.078	54.4
591.529	52.21
591.979	54.82
592.429	53.82
592.88	50.81
593.33	54.52
593.78	53.8
594.231	52.36
594.681	54.31
595.131	51.42
595.581	52.42
596.031	52.49
596.481	52.7
596.932	52.36
597.382	52.97
597.832	50.45
598.282	54.03
598.732	52.91
599.182	54.56
599.632	52.45
600.081	53.64
600.531	53.08
600.981	52.12
601.431	50.21
601.881	55.43
602.33	51.58
602.78	53.38
603.23	53.85
603.679	51.54
604.129	50.56
604.579	51.63
605.028	51.08
605.478	51.93
605.927	55.62
606.377	50.42
606.826	53.97
607.276	52.08
607.725	50.77
608.175	51.71
608.624	51.83
609.073	53.7
609.522	52.51
609.972	52.52
610.421	53.69
610.87	52.62
611.319	51.21
611.768	51.98
612.218	53.16
612.667	52.08
613.116	54.07
613.565	50.92
614.014	51.52
614.463	52.31
614.912	51.14
615.361	51.1
615.81	53.11
616.258	52.96
616.707	52.89
617.156	53.46
617.605	54.21
618.054	53.8
618.502	53.24
618.951	51.15
619.4	54.78
619.848	54.55
620.297	53.62
620.745	53.68
621.194	51.36
621.642	53.88
622.091	52.9
622.539	52.71
622.988	51.23
623.436	52.52
623.885	51.84
624.333	52.54
624.781	51.64
625.23	52.74
625.678	52.67
626.126	51.08
626.574	52.64
627.022	53.44
627.471	54.73
627.919	52.4
628.367	52.06
628.815	51.66
629.263	52.56
629.711	52.99
630.159	51.52
630.607	53.41
631.055	53.59
631.503	54.36
631.95	53.65
632.398	52.86
632.846	52.69
633.294	53.25
633.742	52.69
634.189	52.5
634.637	53.77
635.085	51.09
635.532	53.88
635.98	50.89
636.427	52.62
636.875	53.65
637.323	52.25
637.77	52.41
638.217	51.96
638.665	52.18
639.112	51.87
639.56	52.45
640.007	52.41
640.454	53.13
640.902	52.7
641.349	53.08
641.796	51.77
642.243	51.61
642.69	52.56
643.138	52.47
643.585	53.59
644.032	50.64
644.479	52.58
644.926	52.59
645.373	52.08
645.82	54.26
646.267	54.05
646.714	54.24
647.161	51.86
647.607	51
648.054	52.58
648.501	53.19
648.948	52.86
649.395	51.81
649.841	52.76
650.288	52.62
650.735	53.75
651.181	52.04
651.628	50.94
652.075	51.51
652.521	53.44
652.968	53.03
653.414	52.46
653.861	53.68
654.307	52.67
654.753	52.76
655.2	51.8
655.646	52.19
656.092	51.73
656.539	51.93
656.985	53.3
657.431	53.33
657.877	52.35
658.324	51.73
658.77	52.57
659.216	52.08
659.662	54.18
660.108	53.8
660.554	52.55
661	52.12
661.446	50.57
661.892	52.31
662.338	53.35
662.784	52.05
663.23	54.35
663.675	52.75
664.121	53.13
664.567	52.81
665.013	51.32
665.458	53.67
665.904	52.5
666.35	52.72
666.795	51.18
667.241	51
667.687	52.38
668.132	53.07
668.578	51.48
669.023	52.05
669.469	51.92
669.914	52.89
670.359	52.58
670.805	52.73
671.25	52.39
671.695	51.53
672.141	51.55
672.586	54.5
673.031	52.96
673.476	52.83
673.922	52.59
674.367	52.86
674.812	51.76
675.257	51.13
675.702	52.41
676.147	53.02
676.592	52.19
677.037	52.47
677.482	53.03
677.927	52.47
678.372	52.69
678.817	51.57
679.261	53.68
679.706	51.74
680.151	52.03
680.596	52.37
681.04	51.36
681.485	51.33
681.93	52.47
682.374	52.26
682.819	51.3
683.264	51.58
683.708	51.11
684.153	52.9
684.597	53.3
685.042	50.82
685.486	51.37
685.93	52.94
686.375	51.07
686.819	52.2
687.263	50.72
687.708	52.53
688.152	52.61
688.596	53.22
689.04	51.1
689.485	52.71
689.929	52.9
690.373	51.52
690.817	51.19
691.261	52.07
691.705	52.3
692.149	50.86
692.593	52.87
693.037	51.06
693.481	51.75
693.925	51.56
694.369	52.04
694.812	52.71
695.256	51.44
695.7	52.23
696.144	52.72
696.587	51.56
697.031	51.72
697.475	51.33
697.918	52.18
698.362	52.71
698.806	51.92
699.249	51.93
699.693	50.97
700.136	50.23
700.58	52.06
701.023	51.25
701.466	52.19
701.91	51.49
702.353	51.12
702.796	50.78
703.24	50.51
703.683	51.62
704.126	51.94
704.569	51.8
705.013	50.96
705.456	51.98
705.899	51.31
706.342	53.33
706.785	51.96
707.228	52.18
707.671	50.1
708.114	51.15
708.557	51.56
709	50.83
709.443	52.03
709.886	50.94
710.328	51.98
710.771	52.02
711.214	50.72
711.657	50.86
712.099	51.63
712.542	52.22
712.985	51.29
713.427	50.49
713.87	51.7
714.313	49.82
714.755	51.09
715.198	50.98
715.64	51.63
716.083	50.74
716.525	51.27
716.967	51.53
717.41	50.29
717.852	51.55
718.295	51.06
718.737	52.52
719.179	51.34
719.621	50.76
720.063	51.66
720.506	51.56
720.948	51.16
721.39	52.25
721.832	51.16
722.274	52.13
722.716	50.89
723.158	52.64
723.6	51.29
724.042	51.75
724.484	50.73
724.926	50.41
725.368	49.44
725.81	50.75
726.251	50.33
726.693	51.07
727.135	49.94
727.577	51.78
728.018	51.03
728.46	50.48
728.902	50.27
729.343	52.03
729.785	51.91
730.226	50.49
730.668	49.11
731.109	50.39
731.551	50.72
731.992	51.16
732.434	51.44
732.875	50.71
733.316	52.03
733.758	50.36
734.199	50.89
734.64	50.03
735.081	50.78
735.523	49.02
735.964	52.52
736.405	50.05
736.846	50.09
737.287	50.76
737.728	50.07
738.169	50.13
738.61	49.93
739.051	51
739.492	50.59
739.933	50.98
740.374	49.65
740.815	49.3
741.256	50.24
741.696	51.09
742.137	50.28
742.578	50.73
743.019	49.62
743.459	50.35
743.9	48.91
744.341	51.68
744.781	51.27
745.222	50
745.662	50.56
746.103	50.06
746.543	49.56
746.984	49.3
747.424	49.1
747.865	49.7
748.305	50.57
748.745	50.14
749.186	49.44
749.626	51.03
750.066	50.37
750.506	50.86
750.947	49.95
751.387	50.8
751.827	49.16
752.267	49.52
752.707	50.35
753.147	49.42
753.587	49.62
754.027	50.36
754.467	51.3
754.907	50.86
755.347	49.54
755.787	48.64
756.227	50.36
756.667	50.2
757.107	49.44
757.546	50.61
757.986	49.05
758.426	49.48
758.865	49.62
759.305	50.42
759.745	49.57
760.184	50.8
760.624	49.69
761.063	50.55
761.503	49.48
761.943	49.93
762.382	50.46
762.821	50.73
763.261	48.87
763.7	50.52
764.14	49.2
764.579	50.85
765.018	49.2
765.457	48.82
765.897	50.71
766.336	50.74
766.775	49.8
767.214	48.86
767.653	48.64
768.092	49.4
768.531	48.73
768.97	48.84
769.409	50.67
769.848	49.38
770.287	49.59
770.726	49.83
771.165	49.93
771.604	49.11
772.043	49.5
772.482	49.85
772.92	49.27
773.359	49.86
773.798	49.42
774.237	49.55
774.675	49.17
775.114	50.29
775.553	49.06
775.991	50.06
776.43	50.91
776.868	50.92
777.307	49.16
777.745	49.72
778.184	48.99
778.622	50.48
779.06	50.02
779.499	49.89
779.937	48.86
780.375	49.93
780.814	49.09
781.252	48.79
781.69	49.65
782.128	50.21
782.566	49.56
783.004	48.4
783.443	50.14
783.881	48.79
784.319	49.84
784.757	49.94
785.195	49.15
785.633	50.85
786.071	49.71
786.508	49.52
786.946	49.14
787.384	49.73
787.822	49.22
788.26	49.76
788.697	49.11
789.135	50.27
789.573	47.64
790.011	49.41
790.448	49.37
790.886	49.69
791.323	48.54
791.761	49.35
792.198	48.93
792.636	48.52
793.073	49.8
793.511	49.06
793.948	49.16
794.386	49.51
794.823	50.22
795.26	49.61
795.698	49.1
796.135	48.85
796.572	49.13
797.009	49.77
797.446	48.9
797.884	50.45
798.321	49.21
798.758	49.86
799.195	48.5
799.632	48.92
800.069	48.34
800.506	49.68
800.943	49.28
801.38	49.17
801.817	48.59
802.254	47.56
802.69	49.91
803.127	48.64
803.564	49.33
804.001	49.06
804.438	49.58
804.874	48.81
