Data from JCR0003_Black2_Reflection_00002.txt Node
Date: Wed Jul 22 12:18:37 ACST 2020
User: Stacey Dix
Spectrometer: MAYP113282
Scans to average: 1
Trigger mode: 0
Integration Time (sec): 1.000000E-1
Electric dark correction enabled: true
Boxcar width: 0
XAxis mode: Wavelengths
Number of Pixels in Spectrum: 2068
>>>>>Begin Spectral Data<<<<<
198.791	-957.14
199.266	170
199.74	-1000
200.215	50
200.69	216.98
201.164	173.75
201.639	130.53
202.114	134.78
202.588	125.84
203.063	110.69
203.537	79.22
204.012	88.57
204.486	95.39
204.961	85.03
205.435	106.7
205.909	79.19
206.384	65.6
206.858	119.23
207.332	119.29
207.807	92.35
208.281	77.86
208.755	101.68
209.229	75.98
209.703	64.38
210.177	110.97
210.651	84.09
211.126	152.1
211.6	83.58
212.074	89.47
212.548	52.51
213.021	86.79
213.495	85.5
213.969	114.29
214.443	110.45
214.917	132.71
215.391	69.68
215.864	95.54
216.338	105.34
216.812	93.4
217.286	79.19
217.759	106.04
218.233	88.97
218.706	125.95
219.18	106.46
219.654	84.95
220.127	73.38
220.6	82.87
221.074	58.56
221.547	70.69
222.021	100.76
222.494	68.05
222.967	70.32
223.441	87.71
223.914	65.52
224.387	101.74
224.86	63.84
225.334	79.67
225.807	76.97
226.28	73.36
226.753	70.58
227.226	62.98
227.699	68.71
228.172	67.32
228.645	65.41
229.118	67.2
229.591	57.8
230.064	63.86
230.537	66.48
231.01	61.93
231.482	59.18
231.955	53.58
232.428	67.69
232.901	62.28
233.373	59.22
233.846	55.46
234.319	57.89
234.791	54.46
235.264	71.43
235.736	53.82
236.209	58.07
236.681	50.93
237.154	53.44
237.626	57.55
238.099	53.65
238.571	48.83
239.044	53.92
239.516	53.88
239.988	57.11
240.46	52.35
240.933	54.6
241.405	55.51
241.877	52.4
242.349	57.18
242.821	49.53
243.293	48.95
243.765	48.17
244.237	49.42
244.71	49.07
245.181	48.09
245.653	50.66
246.125	47.21
246.597	45.1
247.069	49.75
247.541	45.01
248.013	45.69
248.485	42.46
248.956	40.67
249.428	47.6
249.9	43.45
250.371	44.96
250.843	41.54
251.315	41.88
251.786	42.61
252.258	39.61
252.729	40.71
253.201	39.91
253.672	39.44
254.144	39.62
254.615	41.32
255.086	40.96
255.558	38.05
256.029	40.81
256.5	41.26
256.972	41.41
257.443	41.17
257.914	38.32
258.385	40.57
258.856	41.64
259.327	40.65
259.799	39
260.27	40.78
260.741	42.96
261.212	38.42
261.683	41.85
262.154	40.12
262.624	38.25
263.095	39.64
263.566	39.64
264.037	40.12
264.508	39.49
264.979	40.4
265.449	40.76
265.92	40.02
266.391	40.16
266.861	38.08
267.332	40.61
267.803	39.05
268.273	40.01
268.744	38
269.214	40.25
269.685	38.71
270.155	42.66
270.626	40.27
271.096	39.83
271.566	42.42
272.037	36.95
272.507	39.58
272.977	40.64
273.448	40.05
273.918	44.74
274.388	41.48
274.858	42.96
275.328	41.76
275.798	40.77
276.268	40.15
276.738	43.75
277.208	42.29
277.678	41.54
278.148	41.75
278.618	40.77
279.088	38.13
279.558	40.38
280.028	40.14
280.498	41.62
280.968	38.2
281.437	42.94
281.907	39.26
282.377	36.26
282.847	38.24
283.316	38.93
283.786	40.3
284.255	37.72
284.725	36.92
285.194	38.88
285.664	40.56
286.133	39.67
286.603	41.13
287.072	41.17
287.542	40.91
288.011	38.83
288.48	37.08
288.95	38.52
289.419	37.1
289.888	39.4
290.357	37.73
290.827	36.43
291.296	38.67
291.765	37.87
292.234	38.53
292.703	39.9
293.172	36.97
293.641	35.68
294.11	34.95
294.579	36.48
295.048	38.03
295.517	38.07
295.986	36.72
296.455	39.21
296.923	34.16
297.392	40.74
297.861	36.05
298.33	37.17
298.798	36.35
299.267	39.14
299.736	36.57
300.204	34.1
300.673	37.73
301.141	37.16
301.61	34.95
302.079	34.85
302.547	32.74
303.015	34.01
303.484	33.02
303.952	35.65
304.421	35.48
304.889	32.43
305.357	37.16
305.825	36.56
306.294	33.09
306.762	32.64
307.23	35.44
307.698	37.63
308.166	35.74
308.634	33.22
309.103	34.31
309.571	35.05
310.039	32.26
310.507	32.62
310.975	33.4
311.442	33.4
311.91	33.14
312.378	33.05
312.846	34.35
313.314	32.93
313.782	32.84
314.249	31.77
314.717	34.7
315.185	32.3
315.652	31.86
316.12	35.83
316.588	32.8
317.055	33.43
317.523	29.36
317.99	33.05
318.458	30.65
318.925	33.14
319.393	30.98
319.86	31.74
320.328	34.82
320.795	31.59
321.262	28.4
321.73	29.96
322.197	31.49
322.664	26.86
323.131	31.05
323.598	32.53
324.066	28.21
324.533	30.15
325	29.9
325.467	31.64
325.934	31.01
326.401	30.74
326.868	29.02
327.335	27.18
327.802	29.4
328.269	28.28
328.735	30.1
329.202	29.71
329.669	29.41
330.136	30.98
330.603	29.9
331.069	30.13
331.536	28.05
332.003	30.57
332.469	27.58
332.936	29.17
333.402	30.11
333.869	29.46
334.336	26.01
334.802	29.31
335.268	27.46
335.735	27.69
336.201	26.43
336.668	28.77
337.134	28.33
337.6	26.74
338.067	28.5
338.533	28.68
338.999	27.73
339.465	26.37
339.931	26.48
340.398	26.24
340.864	27.7
341.33	24.17
341.796	25.97
342.262	27.6
342.728	27.07
343.194	24.95
343.66	25.55
344.126	26.63
344.592	25.48
345.057	27.68
345.523	27.68
345.989	26.06
346.455	24.41
346.921	24.68
347.386	25.16
347.852	26.46
348.318	26.75
348.783	25.59
349.249	24.52
349.714	24.08
350.18	23.59
350.645	27.69
351.111	24.18
351.576	27.02
352.042	24.4
352.507	25.16
352.973	26.42
353.438	23.28
353.903	26.05
354.369	25.85
354.834	23.19
355.299	25.46
355.764	24.43
356.229	25.35
356.695	23.77
357.16	21.98
357.625	23.69
358.09	22.9
358.555	24.4
359.02	26.18
359.485	25.66
359.95	24.39
360.415	24.68
360.879	26.47
361.344	23.75
361.809	23.15
362.274	23.72
362.739	25.4
363.203	24.07
363.668	25.8
364.133	21.82
364.597	24.49
365.062	23.68
365.527	22.79
365.991	24.97
366.456	25.78
366.92	21.3
367.385	21.88
367.849	22.89
368.314	22.14
368.778	21.42
369.242	23.03
369.707	24.29
370.171	20.77
370.635	25.04
371.1	20.5
371.564	22.97
372.028	22.56
372.492	22.79
372.956	21.76
373.42	23.5
373.884	22.1
374.348	23.32
374.812	21.56
375.276	23.27
375.74	21.52
376.204	25.95
376.668	20.57
377.132	23.46
377.596	21.46
378.06	22
378.524	20.41
378.987	22.56
379.451	20.92
379.915	22.66
380.378	20.98
380.842	20.73
381.306	22.47
381.769	21.78
382.233	20.97
382.696	20.81
383.16	21.91
383.623	23.72
384.087	20.68
384.55	21.95
385.014	19.58
385.477	22.66
385.94	21.87
386.404	22.18
386.867	22.63
387.33	22.02
387.793	20.79
388.256	19.88
388.72	21.16
389.183	22.39
389.646	20.79
390.109	21.17
390.572	20.03
391.035	19.73
391.498	20.96
391.961	19.22
392.424	20.85
392.887	20.8
393.35	20.35
393.812	21.24
394.275	20.51
394.738	18.19
395.201	19.31
395.664	20.11
396.126	22.86
396.589	22.06
397.052	19.3
397.514	22.58
397.977	18.94
398.439	22.31
398.902	18.23
399.364	21.14
399.827	20.63
400.289	21.44
400.752	20.66
401.214	19.78
401.676	21.61
402.139	20.71
402.601	21.26
403.063	19.01
403.525	19.44
403.988	19.89
404.45	22.41
404.912	20.85
405.374	22
405.836	21.13
406.298	18.22
406.76	18.69
407.222	20.34
407.684	20.46
408.146	21.04
408.608	16.84
409.07	18.95
409.532	20.03
409.994	19.61
410.456	22.27
410.917	19.51
411.379	19.33
411.841	21.27
412.303	20.37
412.764	20.05
413.226	20.37
413.687	21.34
414.149	19.82
414.611	19.12
415.072	18.78
415.534	20.27
415.995	21.96
416.457	19.1
416.918	20.86
417.379	19.62
417.841	20.19
418.302	20.56
418.763	19.88
419.225	19.4
419.686	19.18
420.147	18.8
420.608	18.66
421.069	20.34
421.53	19.74
421.991	20.31
422.453	19.19
422.914	18.43
423.375	18.3
423.836	18.85
424.297	21.13
424.757	19.68
425.218	20.18
425.679	18.54
426.14	19.93
426.601	18.97
427.062	20.49
427.522	20.36
427.983	18.5
428.444	22.19
428.904	21.75
429.365	21.53
429.826	20.4
430.286	18.98
430.747	22.35
431.207	19.82
431.668	20.46
432.128	25.92
432.589	19.23
433.049	21.43
433.509	21.95
433.97	21.08
434.43	20.07
434.89	19.05
435.351	18.17
435.811	21.71
436.271	20.63
436.731	21.34
437.191	19.85
437.651	18.24
438.112	19.72
438.572	21.13
439.032	16.67
439.492	19.49
439.952	20.33
440.412	17.44
440.871	20.3
441.331	19.26
441.791	21.08
442.251	20.65
442.711	20.73
443.171	20.52
443.63	19.5
444.09	17.67
444.55	20.55
445.009	19.87
445.469	17.95
445.929	20.47
446.388	16.29
446.848	19.05
447.307	19.04
447.767	18.57
448.226	17.52
448.686	20.26
449.145	18.25
449.604	19.98
450.064	19.07
450.523	20.18
450.982	18.57
451.442	18.56
451.901	18.48
452.36	22.07
452.819	18.73
453.278	18.94
453.737	19.43
454.197	18.26
454.656	15.91
455.115	20.04
455.574	17.3
456.033	19.38
456.492	20.5
456.95	15.33
457.409	21.02
457.868	21.08
458.327	20.32
458.786	19.56
459.245	17.99
459.703	20.74
460.162	21.38
460.621	19.15
461.079	19.93
461.538	19.51
461.997	19.47
462.455	16.83
462.914	20.83
463.372	17.29
463.831	21.13
464.289	19.08
464.748	23.23
465.206	20.07
465.664	22.29
466.123	20.12
466.581	17.03
467.039	17.93
467.497	20.83
467.956	18.66
468.414	21.1
468.872	18.79
469.33	20.46
469.788	19.97
470.246	17.87
470.704	20.6
471.162	16.32
471.62	17.72
472.078	21.48
472.536	20.02
472.994	21.55
473.452	20.18
473.91	18.71
474.368	20.69
474.826	18.73
475.283	22.49
475.741	21.36
476.199	17.83
476.656	22.39
477.114	20.96
477.572	19.82
478.029	19.93
478.487	20.54
478.944	21
479.402	18.7
479.859	20.9
480.317	17.78
480.774	18.19
481.232	19.82
481.689	19.79
482.146	18.5
482.604	23.75
483.061	21.53
483.518	20.76
483.975	19.87
484.433	18.1
484.89	17.31
485.347	18.8
485.804	23.61
486.261	18.72
486.718	17.8
487.175	22.94
487.632	20.05
488.089	23.51
488.546	20.71
489.003	17.97
489.46	20.89
489.917	21.72
490.373	24.03
490.83	19.57
491.287	19.7
491.744	21.14
492.2	18.14
492.657	19.4
493.114	17.41
493.57	18.03
494.027	20.08
494.484	21.44
494.94	22.94
495.397	20.73
495.853	19.48
496.31	20.61
496.766	17.09
497.222	17.95
497.679	19.6
498.135	18.82
498.591	18.69
499.048	18.71
499.504	19.43
499.96	20.12
500.416	19.15
500.872	16.5
501.329	20.22
501.785	21.43
502.241	19.67
502.697	19.47
503.153	19.08
503.609	25.54
504.065	18.68
504.521	19.33
504.977	21.03
505.432	19.73
505.888	22.36
506.344	16.78
506.8	20.73
507.256	16.6
507.711	20.7
508.167	21
508.623	18.11
509.078	19.18
509.534	21.06
509.99	18.49
510.445	20.43
510.901	18.03
511.356	17.42
511.812	19.22
512.267	17.77
512.722	18.51
513.178	19.89
513.633	16.53
514.089	16.93
514.544	19.86
514.999	17.26
515.454	19.11
515.91	19.08
516.365	17.69
516.82	16.57
517.275	20.66
517.73	21.33
518.185	17.83
518.64	20.02
519.095	17.78
519.55	18.53
520.005	20.12
520.46	18.83
520.915	19.79
521.37	18.62
521.825	17.26
522.28	18.47
522.734	17.28
523.189	17.7
523.644	21.38
524.099	20.2
524.553	16.13
525.008	19.37
525.462	17.74
525.917	17.47
526.372	19.18
526.826	18.31
527.281	17.16
527.735	20.18
528.19	18.15
528.644	17.09
529.098	16.54
529.553	20.06
530.007	18.87
530.461	19.29
530.916	19.01
531.37	18.25
531.824	16.89
532.278	18.52
532.732	19.13
533.186	20.35
533.641	19.37
534.095	21.04
534.549	20.45
535.003	18.25
535.457	18.6
535.911	16.75
536.365	19.63
536.818	17.56
537.272	18.4
537.726	19.68
538.18	20.29
538.634	20.72
539.087	19.73
539.541	17.8
539.995	16.81
540.449	22.85
540.902	16.56
541.356	17.69
541.809	18.27
542.263	19.34
542.716	18.78
543.17	18.32
543.623	19.44
544.077	18.44
544.53	17.99
544.984	21.08
545.437	18.9
545.89	17.83
546.344	21.55
546.797	18.1
547.25	17.09
547.703	18.56
548.157	20.18
548.61	18.9
549.063	20.55
549.516	20.6
549.969	20.51
550.422	20.6
550.875	19.68
551.328	16.93
551.781	20.29
552.234	16.92
552.687	17.92
553.14	18.79
553.592	16.37
554.045	18.22
554.498	20.18
554.951	18.76
555.404	19.06
555.856	19.64
556.309	18.5
556.762	19.61
557.214	19.8
557.667	20.37
558.119	18.12
558.572	16.99
559.024	18.21
559.477	18.23
559.929	18.66
560.382	18.28
560.834	17.42
561.286	18.26
561.739	18.66
562.191	17.88
562.643	18.08
563.095	19.36
563.548	18.84
564	19.55
564.452	17.87
564.904	18.21
565.356	18.58
565.808	16.96
566.26	19.55
566.712	15.7
567.164	20.22
567.616	17.73
568.068	17.73
568.52	16.66
568.972	19.55
569.424	18.7
569.876	17.88
570.327	17.73
570.779	19.17
571.231	16.67
571.682	17.94
572.134	19.11
572.586	17.84
573.037	18.94
573.489	18.19
573.941	17.35
574.392	17.52
574.844	18.69
575.295	18.11
575.746	16.63
576.198	18.44
576.649	18.29
577.101	19.37
577.552	17.97
578.003	17.26
578.454	18.48
578.906	17.01
579.357	18.18
579.808	18.88
580.259	18.73
580.71	19.17
581.161	19.09
581.612	18.7
582.064	17.35
582.515	17.33
582.965	18.63
583.416	16.97
583.867	18.21
584.318	18.38
584.769	16.27
585.22	17.36
585.671	18.27
586.122	18.01
586.572	18.44
587.023	17.45
587.474	16.41
587.924	18.27
588.375	18.84
588.826	18.12
589.276	18.13
589.727	17.33
590.177	17.81
590.628	17.09
591.078	19.38
591.529	17.48
591.979	17.12
592.429	19.11
592.88	18.14
593.33	21.25
593.78	19.76
594.231	18.32
594.681	16.54
595.131	18.38
595.581	17.67
596.031	18.57
596.481	17.5
596.932	17.68
597.382	16.95
597.832	18.19
598.282	18.04
598.732	18.81
599.182	20.12
599.632	17.9
600.081	16.88
600.531	17.98
600.981	19.61
601.431	17.62
601.881	18.41
602.33	17.27
602.78	17.92
603.23	19.47
603.679	17.78
604.129	18.87
604.579	18.4
605.028	17.78
605.478	18.39
605.927	18.79
606.377	16.65
606.826	18.76
607.276	17.53
607.725	18.62
608.175	19.57
608.624	18.13
609.073	16.76
609.522	18.93
609.972	18.29
610.421	17.65
610.87	18.22
611.319	17.44
611.768	18.09
612.218	18.12
612.667	18.03
613.116	18.53
613.565	17.3
614.014	18.75
614.463	17.95
614.912	18.71
615.361	16.99
615.81	19.21
616.258	18.05
616.707	18.23
617.156	18.15
617.605	18.42
618.054	18.56
618.502	16.53
618.951	18.99
619.4	19.17
619.848	17.05
620.297	17.48
620.745	17.37
621.194	17.44
621.642	17.08
622.091	17.38
622.539	18.49
622.988	17.42
623.436	17.36
623.885	18.44
624.333	18.66
624.781	18.19
625.23	18.23
625.678	18.87
626.126	18.84
626.574	17.54
627.022	17.17
627.471	17.95
627.919	16.93
628.367	17.22
628.815	18.4
629.263	17.64
629.711	17.48
630.159	17.31
630.607	17.7
631.055	17.56
631.503	17.83
631.95	17.46
632.398	18.67
632.846	17.08
633.294	19.75
633.742	18.85
634.189	17.14
634.637	17.83
635.085	17.72
635.532	18.7
635.98	16.47
636.427	17.99
636.875	17.51
637.323	20.16
637.77	17.93
638.217	17.96
638.665	17.45
639.112	17.1
639.56	17.17
640.007	18.75
640.454	18.12
640.902	18.14
641.349	17.23
641.796	17.88
642.243	17.05
642.69	18.28
643.138	19.04
643.585	17.44
644.032	17.82
644.479	17.41
644.926	18.33
645.373	17.57
645.82	17.66
646.267	19.28
646.714	16.96
647.161	18.05
647.607	17.37
648.054	16.96
648.501	17.45
648.948	18.2
649.395	17.34
649.841	18.1
650.288	17.47
650.735	17.63
651.181	17.86
651.628	17.93
652.075	17.58
652.521	19.02
652.968	17.48
653.414	18.19
653.861	17.3
654.307	18.21
654.753	17.77
655.2	17.85
655.646	18.17
656.092	18.32
656.539	18.35
656.985	18.62
657.431	17.32
657.877	17.72
658.324	17.53
658.77	17.92
659.216	16.62
659.662	17.93
660.108	17.97
660.554	16.86
661	17.7
661.446	18.03
661.892	19.32
662.338	17.93
662.784	18.35
663.23	18.26
663.675	18.15
664.121	17.34
664.567	19.17
665.013	16.37
665.458	16.88
665.904	18.49
666.35	17.18
666.795	18.35
667.241	18.24
667.687	19.01
668.132	17.16
668.578	16.69
669.023	16.9
669.469	17.22
669.914	18.37
670.359	17.54
670.805	17.39
671.25	17.89
671.695	17.88
672.141	18.59
672.586	17.01
673.031	18.05
673.476	18.08
673.922	18.91
674.367	17.92
674.812	18.2
675.257	17
675.702	18.34
676.147	17.69
676.592	17.31
677.037	17.74
677.482	18.09
677.927	17.87
678.372	18.5
678.817	18.62
679.261	17.49
679.706	17.23
680.151	17.45
680.596	17.64
681.04	18.81
681.485	16.44
681.93	18.82
682.374	18.33
682.819	17.34
683.264	17.75
683.708	18.05
684.153	18.3
684.597	18.67
685.042	18.3
685.486	18.27
685.93	17.88
686.375	17.14
686.819	17.31
687.263	17.76
687.708	18.66
688.152	18.21
688.596	17.98
689.04	18.23
689.485	18.47
689.929	18.2
690.373	17.84
690.817	18.3
691.261	17.87
691.705	18.23
692.149	18.36
692.593	17.63
693.037	18.38
693.481	18.63
693.925	18.63
694.369	17.35
694.812	18.13
695.256	18.29
695.7	18.69
696.144	18.5
696.587	18.4
697.031	18.62
697.475	18.85
697.918	18.17
698.362	17.95
698.806	18.83
699.249	17.7
699.693	18.93
700.136	18.52
700.58	18.61
701.023	18.62
701.466	18.76
701.91	18.28
702.353	18.58
702.796	18.42
703.24	19.08
703.683	17.51
704.126	18.82
704.569	17.98
705.013	18.38
705.456	18.64
705.899	17.68
706.342	18.43
706.785	17.82
707.228	18.56
707.671	17.85
708.114	18.61
708.557	18.04
709	18.58
709.443	19
709.886	18.99
710.328	18.36
710.771	18.74
711.214	19.37
711.657	17.65
712.099	18.15
712.542	18.45
712.985	18.72
713.427	18.05
713.87	17.89
714.313	18.85
714.755	18.06
715.198	18.26
715.64	18.18
716.083	18.06
716.525	18.79
716.967	18.5
717.41	19.53
717.852	18.35
718.295	18.28
718.737	17.87
719.179	18.37
719.621	19.49
720.063	18.5
720.506	17.96
720.948	18.5
721.39	18.62
721.832	18.89
722.274	18.62
722.716	19.05
723.158	19.05
723.6	19.12
724.042	18.88
724.484	18.51
724.926	18.89
725.368	18.77
725.81	18.79
726.251	18.44
726.693	19.18
727.135	19.43
727.577	18.65
728.018	18.57
728.46	19.07
728.902	19.47
729.343	19.76
729.785	18.72
730.226	19.13
730.668	19.13
731.109	20.2
731.551	19.76
731.992	19.1
732.434	19.77
732.875	19.04
733.316	19.42
733.758	19.27
734.199	19.45
734.64	18.2
735.081	18.73
735.523	19.91
735.964	17.99
736.405	19.01
736.846	18.53
737.287	19.29
737.728	19.16
738.169	18.39
738.61	18.96
739.051	18.64
739.492	18.96
739.933	19.02
740.374	19.28
740.815	18.74
741.256	18.79
741.696	19.11
742.137	19.88
742.578	19.29
743.019	19.58
743.459	19.29
743.9	19.72
744.341	19.16
744.781	19.21
745.222	19.37
745.662	19.22
746.103	19.95
746.543	18.98
746.984	20.2
747.424	19.19
747.865	19.99
748.305	18.67
748.745	19.39
749.186	19.35
749.626	19.96
750.066	19.35
750.506	18.79
750.947	19.42
751.387	19.45
751.827	19.68
752.267	19.87
752.707	19.29
753.147	19.81
753.587	20.09
754.027	19.68
754.467	20.13
754.907	20.08
755.347	19.6
755.787	19.25
756.227	18.88
756.667	19.01
757.107	19.47
757.546	19.42
757.986	20.23
758.426	19.03
758.865	19.25
759.305	19.72
759.745	19.24
760.184	20.47
760.624	19.77
761.063	19.92
761.503	20.3
761.943	19.97
762.382	19.62
762.821	19.51
763.261	19.31
763.7	19.9
764.14	19.45
764.579	20.09
765.018	19.36
765.457	20.23
765.897	19.97
766.336	19.36
766.775	19.94
767.214	19.15
767.653	20.42
768.092	19.34
768.531	19.83
768.97	19.49
769.409	20.1
769.848	20.39
770.287	20.61
770.726	19.88
771.165	19.79
771.604	20.38
772.043	19.02
772.482	19.99
772.92	19.83
773.359	20.34
773.798	19.44
774.237	19.49
774.675	18.52
775.114	19.22
775.553	20.35
775.991	19.82
776.43	20.19
776.868	20.15
777.307	19.39
777.745	20.31
778.184	19.64
778.622	20.15
779.06	20.4
779.499	20.65
779.937	19.19
780.375	20.03
780.814	20.02
781.252	20.53
781.69	20.76
782.128	19.6
782.566	20.48
783.004	19.8
783.443	19.67
783.881	20.91
784.319	19.89
784.757	19.93
785.195	21.07
785.633	20.33
786.071	20.12
786.508	20.48
786.946	20.8
787.384	19.92
787.822	20.59
788.26	20.85
788.697	20.09
789.135	21.22
789.573	20.55
790.011	19.76
790.448	20.72
790.886	20.6
791.323	20.39
791.761	20.17
792.198	20.54
792.636	20.67
793.073	19.97
793.511	20.17
793.948	21.56
794.386	21.06
794.823	20.76
795.26	21.29
795.698	20.99
796.135	20.91
796.572	20.1
797.009	20.92
797.446	20.64
797.884	20.46
798.321	19.88
798.758	20.2
799.195	20.41
799.632	20.35
800.069	20.18
800.506	20.77
800.943	20.32
801.38	20.98
801.817	20.94
802.254	21.02
802.69	21.13
803.127	20.9
803.564	20.98
804.001	20.16
804.438	21.11
