Data from JCR0012_White2_Reflection_00003.txt Node
Date: Fri Jul 31 16:08:29 ACST 2020
User: Stacey Dix
Spectrometer: MAYP113282
Scans to average: 1
Trigger mode: 0
Integration Time (sec): 1.000000E-1
Electric dark correction enabled: true
Boxcar width: 0
XAxis mode: Wavelengths
Number of Pixels in Spectrum: 2068
>>>>>Begin Spectral Data<<<<<
198.791	812.5
199.266	-39.29
199.74	-50
200.215	-575
200.69	-14.96
201.164	-5.09
201.639	0.33
202.114	0.23
202.588	29.72
203.063	28.95
203.537	-14.53
204.012	-6.94
204.486	-2.56
204.961	-3.95
205.435	1.43
205.909	0.2
206.384	-15.16
206.858	12.76
207.332	26.81
207.807	1.33
208.281	-12.16
208.755	4.18
209.229	9.79
209.703	25.88
210.177	-16.75
210.651	23.87
211.126	-1.9
211.6	21.86
212.074	4.92
212.548	-24.62
213.021	11.96
213.495	26.52
213.969	12.67
214.443	12.18
214.917	-6.07
215.391	18.78
215.864	17.72
216.338	13.57
216.812	-5.86
217.286	11.57
217.759	11.25
218.233	7.13
218.706	7.13
219.18	12.7
219.654	6.61
220.127	10.45
220.6	12.55
221.074	8
221.547	9.7
222.021	4.44
222.494	7.16
222.967	6.93
223.441	9.34
223.914	6.19
224.387	9.62
224.86	4.82
225.334	8.93
225.807	7.55
226.28	-1.92
226.753	10.91
227.226	3.81
227.699	9.29
228.172	7.12
228.645	7.29
229.118	13.11
229.591	4.55
230.064	6.79
230.537	5.43
231.01	7.28
231.482	8.67
231.955	14.07
232.428	8
232.901	8.6
233.373	7.91
233.846	9.68
234.319	6.76
234.791	6.37
235.264	8.25
235.736	9.53
236.209	7.34
236.681	8.31
237.154	6.29
237.626	6.57
238.099	5.18
238.571	7.74
239.044	7.99
239.516	7.42
239.988	7.9
240.46	6.54
240.933	6.47
241.405	7.68
241.877	6.63
242.349	6.22
242.821	6.26
243.293	6.28
243.765	6.01
244.237	6.84
244.71	7.67
245.181	7.52
245.653	5.28
246.125	5.88
246.597	6.87
247.069	8
247.541	7.49
248.013	6.97
248.485	5.84
248.956	6.22
249.428	7.02
249.9	5.7
250.371	6.07
250.843	6.35
251.315	8.07
251.786	6.57
252.258	7.69
252.729	7.63
253.201	6.74
253.672	6.35
254.144	6.33
254.615	6.94
255.086	5.48
255.558	7.19
256.029	5.99
256.5	6.49
256.972	6.92
257.443	5.31
257.914	5.55
258.385	6.54
258.856	5.39
259.327	6.82
259.799	5.54
260.27	6.05
260.741	6.33
261.212	6.7
261.683	6.5
262.154	5.68
262.624	6.43
263.095	6.75
263.566	5.65
264.037	5.97
264.508	6.79
264.979	6.4
265.449	5.97
265.92	5.14
266.391	5.94
266.861	6.37
267.332	6.55
267.803	5.66
268.273	6.25
268.744	6.36
269.214	6.83
269.685	6.13
270.155	5.73
270.626	6.09
271.096	6.74
271.566	6.68
272.037	6.51
272.507	6.26
272.977	6.34
273.448	4.46
273.918	6.62
274.388	6.09
274.858	5.52
275.328	4.81
275.798	6.57
276.268	5.93
276.738	4.95
277.208	5.02
277.678	7.03
278.148	5.82
278.618	6.34
279.088	6.69
279.558	5.31
280.028	6.1
280.498	4.14
280.968	6.93
281.437	5.7
281.907	5.15
282.377	5.74
282.847	6.26
283.316	5.93
283.786	6.97
284.255	5.81
284.725	6.45
285.194	5.15
285.664	4.41
286.133	4.85
286.603	5.37
287.072	5.08
287.542	5.94
288.011	5.55
288.48	5.32
288.95	6.14
289.419	6.55
289.888	5.11
290.357	6.07
290.827	5.72
291.296	5.13
291.765	5.55
292.234	5.34
292.703	5.73
293.172	5.84
293.641	5.43
294.11	5.45
294.579	5.42
295.048	5.88
295.517	6.2
295.986	5.94
296.455	5.74
296.923	6.8
297.392	4.94
297.861	5.75
298.33	5.29
298.798	6.33
299.267	5.41
299.736	4.86
300.204	5.59
300.673	6.78
301.141	5.31
301.61	6.74
302.079	6.22
302.547	6.01
303.015	4.42
303.484	6.05
303.952	6.15
304.421	5.79
304.889	5.97
305.357	6.26
305.825	5.45
306.294	5.41
306.762	6.01
307.23	5.7
307.698	5.69
308.166	5.33
308.634	4.02
309.103	6.29
309.571	4.87
310.039	5.46
310.507	6.13
310.975	5.71
311.442	6.13
311.91	5.81
312.378	5.91
312.846	4.56
313.314	5.81
313.782	6.4
314.249	5.97
314.717	6.76
315.185	5.69
315.652	6.42
316.12	6.08
316.588	5.59
317.055	5.14
317.523	6.41
317.99	6.29
318.458	6.37
318.925	5.86
319.393	6.12
319.86	5.4
320.328	6.48
320.795	7.22
321.262	6.36
321.73	7.13
322.197	6.33
322.664	7.36
323.131	7.63
323.598	7.55
324.066	8.51
324.533	7.81
325	10.27
325.467	9.63
325.934	9.97
326.401	10.6
326.868	10.62
327.335	11.17
327.802	12.83
328.269	11.49
328.735	11.42
329.202	13.25
329.669	13.96
330.136	13.35
330.603	15.29
331.069	16.89
331.536	16.84
332.003	16.01
332.469	15.53
332.936	16.26
333.402	17.39
333.869	17.36
334.336	18.15
334.802	17.35
335.268	17.35
335.735	19.36
336.201	18.54
336.668	16.74
337.134	17.43
337.6	19.4
338.067	16.91
338.533	17.1
338.999	18.47
339.465	17.12
339.931	18.12
340.398	18.6
340.864	18.11
341.33	17.59
341.796	17.24
342.262	17.37
342.728	18.16
343.194	18.07
343.66	18.39
344.126	16.78
344.592	16.9
345.057	17.7
345.523	18.3
345.989	16.26
346.455	16.72
346.921	16.89
347.386	17.91
347.852	17.38
348.318	17.09
348.783	17.06
349.249	16.92
349.714	17.64
350.18	18.28
350.645	17.75
351.111	17.24
351.576	18.82
352.042	16.47
352.507	16.29
352.973	16.17
353.438	16.82
353.903	18.06
354.369	15.97
354.834	17.48
355.299	15.96
355.764	18.71
356.229	18.27
356.695	15.39
357.16	16.76
357.625	15.96
358.09	18.18
358.555	18.24
359.02	17.78
359.485	13.54
359.95	15.26
360.415	17.37
360.879	17.74
361.344	16.91
361.809	17.58
362.274	16.55
362.739	15.53
363.203	17.08
363.668	15
364.133	17.41
364.597	16.77
365.062	15.8
365.527	16.5
365.991	16.27
366.456	17.19
366.92	16.86
367.385	16.58
367.849	16.85
368.314	17.25
368.778	16.11
369.242	16.92
369.707	16.97
370.171	15.9
370.635	17.3
371.1	15.49
371.564	15.94
372.028	18.28
372.492	17.46
372.956	16.23
373.42	18.57
373.884	16.26
374.348	17.06
374.812	16.33
375.276	16.96
375.74	17.16
376.204	18.34
376.668	17.96
377.132	17.51
377.596	16.99
378.06	17.53
378.524	16.42
378.987	17.62
379.451	15.64
379.915	17
380.378	16.13
380.842	16.88
381.306	15.83
381.769	19
382.233	17.5
382.696	17.3
383.16	16.81
383.623	18.07
384.087	16.52
384.55	15.38
385.014	16.5
385.477	16.49
385.94	16.28
386.404	17.68
386.867	17.11
387.33	16.96
387.793	16.74
388.256	16.55
388.72	16.21
389.183	17.67
389.646	17.33
390.109	16.82
390.572	17.16
391.035	16.72
391.498	17.49
391.961	17.26
392.424	17.04
392.887	17.24
393.35	17.87
393.812	17.67
394.275	17.09
394.738	18.4
395.201	18.14
395.664	17.01
396.126	19.03
396.589	17.22
397.052	17.17
397.514	17.41
397.977	16.74
398.439	16.87
398.902	16.8
399.364	17.43
399.827	16.82
400.289	16.7
400.752	17.74
401.214	16.5
401.676	18.09
402.139	17.35
402.601	15.92
403.063	17.47
403.525	17.92
403.988	16.16
404.45	15.03
404.912	16.89
405.374	15.71
405.836	16.9
406.298	17.5
406.76	16.65
407.222	15.87
407.684	17.51
408.146	15.82
408.608	17.04
409.07	16.22
409.532	15.96
409.994	16.88
410.456	16.95
410.917	16.7
411.379	16.48
411.841	16.58
412.303	16
412.764	17.42
413.226	16.09
413.687	15.81
414.149	15.9
414.611	16.88
415.072	16.71
415.534	16.29
415.995	17.15
416.457	16.06
416.918	16.93
417.379	17.75
417.841	15.7
418.302	16.38
418.763	16.3
419.225	17.2
419.686	16.05
420.147	16.1
420.608	17.06
421.069	16.24
421.53	16.93
421.991	16.29
422.453	16.69
422.914	17.24
423.375	16.73
423.836	16.4
424.297	18.92
424.757	16.59
425.218	17.6
425.679	15.37
426.14	17.61
426.601	17.02
427.062	17.78
427.522	18.57
427.983	18.16
428.444	16.92
428.904	17.01
429.365	17.62
429.826	15.5
430.286	17.7
430.747	16.7
431.207	17.33
431.668	18.15
432.128	17.24
432.589	15.75
433.049	14.8
433.509	19.86
433.97	15.59
434.43	18.72
434.89	18.21
435.351	19.5
435.811	16.03
436.271	18.39
436.731	18.18
437.191	18.61
437.651	19.21
438.112	19.13
438.572	16.76
439.032	20.05
439.492	18.8
439.952	18.5
440.412	18.77
440.871	19
441.331	18.43
441.791	18.49
442.251	21.21
442.711	20.1
443.171	21.41
443.63	18.99
444.09	18.47
444.55	18.69
445.009	19.05
445.469	19.35
445.929	19.52
446.388	20.86
446.848	20.11
447.307	17.44
447.767	18.91
448.226	20.31
448.686	19.62
449.145	17.94
449.604	19.49
450.064	18.5
450.523	18.97
450.982	21.43
451.442	18.86
451.901	20.64
452.36	19.34
452.819	19.14
453.278	21.12
453.737	19.79
454.197	19.54
454.656	20.28
455.115	19.38
455.574	20.23
456.033	18.01
456.492	18.29
456.95	21.85
457.409	19.05
457.868	18.74
458.327	20.44
458.786	20.41
459.245	21.24
459.703	18.45
460.162	21.76
460.621	21.93
461.079	21.05
461.538	20.2
461.997	21.26
462.455	22.62
462.914	21.31
463.372	20.82
463.831	20.71
464.289	19.52
464.748	18.29
465.206	20.54
465.664	21.96
466.123	18.74
466.581	18.8
467.039	21.11
467.497	17.81
467.956	20.06
468.414	21.71
468.872	19.28
469.33	19.76
469.788	21.46
470.246	22.71
470.704	18.56
471.162	21.62
471.62	18.79
472.078	19.42
472.536	18.96
472.994	19.18
473.452	19.66
473.91	19.66
474.368	19.79
474.826	21.18
475.283	21.55
475.741	24.15
476.199	21.45
476.656	20.78
477.114	19.19
477.572	20.09
478.029	17.6
478.487	19.58
478.944	19.48
479.402	21.38
479.859	20.66
480.317	21
480.774	21.48
481.232	20.11
481.689	21.01
482.146	18.99
482.604	19.84
483.061	22.99
483.518	21.59
483.975	18.21
484.433	21.91
484.89	20.57
485.347	17.58
485.804	20.87
486.261	20.41
486.718	17.79
487.175	20.15
487.632	22.64
488.089	21.62
488.546	20.54
489.003	20.47
489.46	20.89
489.917	17.07
490.373	18.68
490.83	19.7
491.287	21.2
491.744	21.49
492.2	19.27
492.657	21.52
493.114	19.25
493.57	18.71
494.027	20.95
494.484	24.73
494.94	21.01
495.397	22.7
495.853	19.53
496.31	19.29
496.766	20.3
497.222	20.35
497.679	21.11
498.135	19.74
498.591	21.39
499.048	21.26
499.504	21.73
499.96	17.89
500.416	20.62
500.872	23.05
501.329	20.02
501.785	18.49
502.241	19.02
502.697	19.01
503.153	20.99
503.609	20.1
504.065	21.29
504.521	21.42
504.977	21.14
505.432	18.88
505.888	19.92
506.344	16.92
506.8	18.07
507.256	19.97
507.711	19.63
508.167	19.46
508.623	18.31
509.078	18.8
509.534	20.85
509.99	20.73
510.445	19.39
510.901	21.53
511.356	20.31
511.812	22.06
512.267	19.02
512.722	19.42
513.178	20.07
513.633	20.35
514.089	21.93
514.544	20.82
514.999	18.51
515.454	21.25
515.91	19.92
516.365	20.88
516.82	21.11
517.275	17.52
517.73	21.63
518.185	20.1
518.64	19.89
519.095	21.82
519.55	21.33
520.005	21.37
520.46	17.93
520.915	22.06
521.37	20.27
521.825	21.11
522.28	19.5
522.734	18.84
523.189	21.89
523.644	21.57
524.099	18.68
524.553	20.76
525.008	20.49
525.462	19.78
525.917	19.77
526.372	20.2
526.826	19.96
527.281	18.18
527.735	19.63
528.19	20.04
528.644	19.73
529.098	19.34
529.553	18.7
530.007	20.65
530.461	20.47
530.916	20.63
531.37	19.36
531.824	19.89
532.278	19.22
532.732	20.57
533.186	21.29
533.641	20.45
534.095	20.43
534.549	18.98
535.003	21.58
535.457	20.93
535.911	20.33
536.365	19.47
536.818	20.77
537.272	20.5
537.726	18.02
538.18	16.88
538.634	20.77
539.087	21.12
539.541	21.22
539.995	20.25
540.449	19.31
540.902	19.55
541.356	20.5
541.809	20.23
542.263	19.65
542.716	19.14
543.17	20.7
543.623	19.8
544.077	18.95
544.53	19.6
544.984	21.05
545.437	19.97
545.89	19.91
546.344	19.66
546.797	21.1
547.25	19.81
547.703	17.56
548.157	19.34
548.61	20.42
549.063	19.17
549.516	20.13
549.969	17.74
550.422	19.49
550.875	21.67
551.328	20.32
551.781	20.8
552.234	19.89
552.687	16.95
553.14	20.96
553.592	19.68
554.045	21.49
554.498	18.85
554.951	21.46
555.404	19.58
555.856	19.64
556.309	19.19
556.762	20.23
557.214	20.54
557.667	20.46
558.119	19.84
558.572	19.61
559.024	20.57
559.477	21.88
559.929	17.84
560.382	21.59
560.834	19.76
561.286	19.55
561.739	19.54
562.191	20.27
562.643	21.67
563.095	20.01
563.548	20.37
564	19.74
564.452	19.31
564.904	20.98
565.356	19.41
565.808	21.04
566.26	21.48
566.712	21.41
567.164	18.54
567.616	20.89
568.068	21.64
568.52	20.37
568.972	20.12
569.424	20.67
569.876	19.48
570.327	21.65
570.779	19.91
571.231	20.63
571.682	19.4
572.134	19.44
572.586	19.82
573.037	20.17
573.489	21.88
573.941	19.46
574.392	20.34
574.844	19.98
575.295	20.74
575.746	20.45
576.198	20.5
576.649	20.21
577.101	19.88
577.552	21.06
578.003	19.4
578.454	20.84
578.906	20.62
579.357	21.83
579.808	20.88
580.259	20.58
580.71	20.57
581.161	20.15
581.612	21.64
582.064	20.69
582.515	19.59
582.965	20.83
583.416	21.67
583.867	21.56
584.318	20.99
584.769	19.59
585.22	20.02
585.671	21.98
586.122	19.89
586.572	20.32
587.023	20.56
587.474	21.52
587.924	20.36
588.375	20.14
588.826	20.66
589.276	19.07
589.727	19.84
590.177	21.62
590.628	20.46
591.078	20.8
591.529	20.21
591.979	19.93
592.429	19.93
592.88	20.65
593.33	20.67
593.78	21.49
594.231	21.04
594.681	21.82
595.131	19.55
595.581	20.55
596.031	19.2
596.481	20.85
596.932	21.05
597.382	19.99
597.832	20.82
598.282	20.02
598.732	22.35
599.182	20.25
599.632	20.96
600.081	21.13
600.531	20.02
600.981	19.8
601.431	19.88
601.881	20.11
602.33	19.63
602.78	21.01
603.23	21.67
603.679	19.85
604.129	21.09
604.579	20.58
605.028	21.44
605.478	20.58
605.927	21.18
606.377	21.63
606.826	20.53
607.276	20.83
607.725	21.39
608.175	20.36
608.624	21.96
609.073	19.84
609.522	19.82
609.972	19.81
610.421	20.94
610.87	19.26
611.319	19.58
611.768	20.94
612.218	20.67
612.667	21.16
613.116	19.97
613.565	20.73
614.014	20.29
614.463	20.09
614.912	20.43
615.361	19.98
615.81	20.19
616.258	20.66
616.707	21.23
617.156	21.03
617.605	20.75
618.054	21.02
618.502	20.28
618.951	19.99
619.4	21.82
619.848	20.42
620.297	19.67
620.745	20.65
621.194	20.38
621.642	19.59
622.091	19.23
622.539	21.2
622.988	20.04
623.436	20.69
623.885	21.17
624.333	20.1
624.781	20.13
625.23	21.73
625.678	21.13
626.126	19.62
626.574	21.12
627.022	20.89
627.471	19.37
627.919	20.98
628.367	20.91
628.815	20.04
629.263	20.6
629.711	20.5
630.159	20.09
630.607	20.96
631.055	18.95
631.503	20.92
631.95	20.72
632.398	19.69
632.846	19.52
633.294	21.13
633.742	19.98
634.189	19.95
634.637	20.26
635.085	20.49
635.532	19.5
635.98	19.78
636.427	21.11
636.875	20.38
637.323	19.66
637.77	20.75
638.217	19.58
638.665	19.93
639.112	20.4
639.56	21.19
640.007	20.86
640.454	20.21
640.902	19.51
641.349	20.25
641.796	21.1
642.243	19.92
642.69	20.18
643.138	19.96
643.585	19.64
644.032	21.32
644.479	19.67
644.926	20
645.373	20.33
645.82	20.13
646.267	20.06
646.714	21.04
647.161	19.97
647.607	20.53
648.054	20.56
648.501	19.91
648.948	20.35
649.395	20.68
649.841	20.56
650.288	20.12
650.735	20.23
651.181	20.61
651.628	20.24
652.075	21.35
652.521	20.15
652.968	20.18
653.414	20.26
653.861	20.9
654.307	20.9
654.753	20.02
655.2	21.22
655.646	20.72
656.092	19.96
656.539	20.27
656.985	19.39
657.431	20.63
657.877	20.55
658.324	19.75
658.77	20.69
659.216	20.5
659.662	19.17
660.108	20.29
660.554	20.39
661	20.34
661.446	20.32
661.892	20.17
662.338	19.9
662.784	21.62
663.23	19.64
663.675	20.05
664.121	20.73
664.567	19.77
665.013	19.98
665.458	19.97
665.904	20.78
666.35	21.1
666.795	19.83
667.241	20.9
667.687	19.69
668.132	19.58
668.578	21.32
669.023	20.47
669.469	20.18
669.914	19.72
670.359	20.38
670.805	20.58
671.25	20.51
671.695	19.68
672.141	20.58
672.586	20.22
673.031	19.75
673.476	20.33
673.922	19.99
674.367	20.21
674.812	19.92
675.257	20.08
675.702	19.55
676.147	19.77
676.592	19.86
677.037	20.3
677.482	20.96
677.927	20.16
678.372	20.18
678.817	20.57
679.261	20.85
679.706	20.23
680.151	19.51
680.596	19.87
681.04	20.28
681.485	19.87
681.93	19.65
682.374	20.91
682.819	20.04
683.264	21.17
683.708	20.88
684.153	19.8
684.597	19.38
685.042	20.85
685.486	19.71
685.93	19.39
686.375	20.51
686.819	20.58
687.263	20.79
687.708	19.87
688.152	20.02
688.596	20.25
689.04	20.4
689.485	21.59
689.929	20.13
690.373	19.44
690.817	21.22
691.261	21.01
691.705	19.5
692.149	21.07
692.593	20.06
693.037	19.82
693.481	20.35
693.925	20.17
694.369	20.64
694.812	20.57
695.256	20.01
695.7	20.24
696.144	20.31
696.587	19.64
697.031	20.33
697.475	20.81
697.918	20.39
698.362	20.65
698.806	20.12
699.249	19.85
699.693	20.06
700.136	19.87
700.58	20.6
701.023	20.22
701.466	20.18
701.91	20.08
702.353	20.53
702.796	20.29
703.24	20.28
703.683	19.99
704.126	20.88
704.569	19.76
705.013	19.63
705.456	19.56
705.899	20.08
706.342	20.17
706.785	20
707.228	20.8
707.671	20.03
708.114	20.09
708.557	20.1
709	19.99
709.443	19.78
709.886	20.3
710.328	20.45
710.771	20.4
711.214	19.84
711.657	20.19
712.099	19.66
712.542	19.92
712.985	20.34
713.427	20.38
713.87	19.83
714.313	19.55
714.755	20.36
715.198	19.68
715.64	19.94
716.083	20.56
716.525	19.72
716.967	19.47
717.41	21.08
717.852	20.14
718.295	20.51
718.737	20.39
719.179	19.95
719.621	19.95
720.063	20.43
720.506	20.22
720.948	20.22
721.39	19.78
721.832	18.81
722.274	19.62
722.716	19.51
723.158	20
723.6	20.81
724.042	20.28
724.484	20.75
724.926	20.17
725.368	20.52
725.81	19.22
726.251	19.96
726.693	20.88
727.135	20.49
727.577	20.28
728.018	20.03
728.46	19.82
728.902	19.98
729.343	20.02
729.785	20.21
730.226	20.26
730.668	20.05
731.109	19.79
731.551	20
731.992	20.01
732.434	20.12
732.875	19.98
733.316	19.73
733.758	20.68
734.199	20.02
734.64	20.05
735.081	19.81
735.523	19.09
735.964	19.91
736.405	19.87
736.846	20.09
737.287	19.66
737.728	19.22
738.169	20.88
738.61	20.28
739.051	20.2
739.492	19.74
739.933	19.42
740.374	19.57
740.815	19.82
741.256	19.8
741.696	19.28
742.137	19.71
742.578	19.8
743.019	19.96
743.459	19.39
743.9	19.85
744.341	19.42
744.781	19.57
745.222	19.57
745.662	20.64
746.103	19.74
746.543	19.38
746.984	20.2
747.424	19.77
747.865	19.96
748.305	19.84
748.745	20.29
749.186	19.41
749.626	20.75
750.066	19.62
750.506	20.06
750.947	19.77
751.387	20.34
751.827	20.19
752.267	20.06
752.707	20.39
753.147	20.24
753.587	19.95
754.027	20.45
754.467	20.38
754.907	19.32
755.347	19.97
755.787	20.29
756.227	20.25
756.667	19.27
757.107	19.94
757.546	20.45
757.986	20.28
758.426	20.12
758.865	19.55
759.305	20.57
759.745	20.06
760.184	20.32
760.624	19.83
761.063	20.06
761.503	20.19
761.943	19.83
762.382	19.87
762.821	20.56
763.261	20.59
763.7	20.51
764.14	20.23
764.579	19.94
765.018	19.7
765.457	19.81
765.897	19.82
766.336	20.45
766.775	19.62
767.214	20.4
767.653	19.73
768.092	20.54
768.531	19.75
768.97	20.24
769.409	20.24
769.848	19.17
770.287	20.22
770.726	20.15
771.165	20.2
771.604	20.07
772.043	20.42
772.482	19.94
772.92	20.56
773.359	20.05
773.798	20
774.237	18.95
774.675	19.93
775.114	20.32
775.553	20.12
775.991	19.7
776.43	19.73
776.868	19.94
777.307	19.93
777.745	20.31
778.184	20.1
778.622	20.04
779.06	19.9
779.499	20.57
779.937	20.49
780.375	19.72
780.814	20.69
781.252	20.74
781.69	20.15
782.128	20.24
782.566	20.47
783.004	20.22
783.443	20.42
783.881	20.17
784.319	20.07
784.757	19.71
785.195	19.72
785.633	20.38
786.071	20.41
786.508	20.31
786.946	20.12
787.384	19.8
787.822	19.97
788.26	20.21
788.697	20.24
789.135	20.26
789.573	20.13
790.011	20.18
790.448	19.57
790.886	20
791.323	20.6
791.761	21.03
792.198	20.01
792.636	20.31
793.073	19.92
793.511	20.3
793.948	20.94
794.386	20.08
794.823	20.33
795.26	19.68
795.698	19.69
796.135	20.53
796.572	19.92
797.009	20.88
797.446	20.48
797.884	20.27
798.321	19.78
798.758	19.68
799.195	20.22
799.632	20.18
800.069	19.52
800.506	20.66
800.943	19.97
801.38	19.95
801.817	20.04
802.254	19.17
802.69	20.3
803.127	19.83
803.564	19.95
804.001	19.79
804.438	20.15
804.874	20.4
805.311	19.79
805.748	20.55
806.184	20.3
806.621	20.38
807.057	20.13
807.494	20.39
807.93	20.68
808.367	19.94
808.803	20.32
809.24	20.21
809.676	19.9
810.112	20.11
810.549	20.36
810.985	20.1
811.421	20.04
811.857	20.21
