Data from JCR0025_Black1_Reflection_00003.txt Node
Date: Fri Jul 31 11:58:19 ACST 2020
User: Stacey Dix
Spectrometer: MAYP113282
Scans to average: 1
Trigger mode: 0
Integration Time (sec): 1.000000E-1
Electric dark correction enabled: true
Boxcar width: 0
XAxis mode: Wavelengths
Number of Pixels in Spectrum: 2068
>>>>>Begin Spectral Data<<<<<
198.791	-72.73
199.266	-137.5
199.74	20
200.215	-700
200.69	-8.63
201.164	22.95
201.639	73.28
202.114	16.72
202.588	33.45
203.063	21.91
203.537	2.93
204.012	10.53
204.486	26.38
204.961	31.91
205.435	8.45
205.909	31.8
206.384	6.35
206.858	-10.66
207.332	20
207.807	18.51
208.281	19.59
208.755	16.29
209.229	13.44
209.703	17.44
210.177	31.73
210.651	11.49
211.126	-0.7
211.6	-7.87
212.074	12.89
212.548	23.91
213.021	-7.62
213.495	31.84
213.969	-1.38
214.443	38.94
214.917	9.03
215.391	17.72
215.864	5.88
216.338	13.41
216.812	16.6
217.286	7.14
217.759	11.13
218.233	16.35
218.706	6.31
219.18	5.11
219.654	8
220.127	11.52
220.6	11.65
221.074	17.03
221.547	16.1
222.021	7.31
222.494	7.39
222.967	20.68
223.441	10.77
223.914	13.51
224.387	7.19
224.86	10.78
225.334	14.02
225.807	9.76
226.28	7.79
226.753	7.5
227.226	11.47
227.699	8.96
228.172	9.75
228.645	9.18
229.118	4.56
229.591	8.73
230.064	8.15
230.537	9.43
231.01	10.49
231.482	8.19
231.955	6.72
232.428	6.4
232.901	7.76
233.373	6.37
233.846	7.71
234.319	8.11
234.791	7.09
235.264	8.51
235.736	6.89
236.209	7.41
236.681	8.08
237.154	8.94
237.626	6.72
238.099	7.91
238.571	5.79
239.044	9.13
239.516	8.15
239.988	7.22
240.46	8.45
240.933	6.25
241.405	7.8
241.877	6.81
242.349	8.56
242.821	7
243.293	8.04
243.765	6.66
244.237	6.95
244.71	7.19
245.181	6.7
245.653	8.14
246.125	7.35
246.597	9.08
247.069	6.72
247.541	7.65
248.013	6.64
248.485	7.98
248.956	8.39
249.428	6.96
249.9	7.11
250.371	6.32
250.843	7.01
251.315	6.87
251.786	6.25
252.258	7.29
252.729	7.04
253.201	6.64
253.672	6.5
254.144	7.31
254.615	6.32
255.086	6.46
255.558	6.93
256.029	6.34
256.5	6.7
256.972	7.08
257.443	6.68
257.914	6.82
258.385	5.99
258.856	6.53
259.327	7.23
259.799	5.97
260.27	6.3
260.741	6
261.212	6.77
261.683	7.1
262.154	6.05
262.624	5.96
263.095	7.11
263.566	6.07
264.037	6.72
264.508	5.99
264.979	6.26
265.449	5.8
265.92	6
266.391	6.39
266.861	6.73
267.332	6.89
267.803	6
268.273	6.86
268.744	6.24
269.214	6.81
269.685	6.44
270.155	6.78
270.626	6.96
271.096	6.13
271.566	6.37
272.037	6.56
272.507	6.79
272.977	6.34
273.448	6.41
273.918	6.72
274.388	7
274.858	4.96
275.328	6.45
275.798	6.42
276.268	7.05
276.738	5.98
277.208	7.24
277.678	6.94
278.148	6.38
278.618	6.36
279.088	6.23
279.558	6.16
280.028	5.31
280.498	6.23
280.968	5.14
281.437	5.7
281.907	6.51
282.377	6.41
282.847	6.15
283.316	5.85
283.786	6.59
284.255	6
284.725	6.71
285.194	6.59
285.664	6.46
286.133	5.55
286.603	6.32
287.072	6.52
287.542	6.23
288.011	6
288.48	5.86
288.95	6.08
289.419	6.64
289.888	5.69
290.357	6.45
290.827	6.09
291.296	6.18
291.765	4.99
292.234	7.17
292.703	6.22
293.172	6.21
293.641	5.64
294.11	7.01
294.579	6.42
295.048	6.42
295.517	6.69
295.986	6.21
296.455	6.72
296.923	7.45
297.392	5.7
297.861	6.01
298.33	6.75
298.798	5.85
299.267	7.74
299.736	5.4
300.204	6.89
300.673	6.24
301.141	5.34
301.61	6.59
302.079	6.61
302.547	6.47
303.015	5.85
303.484	5.72
303.952	6.73
304.421	6.86
304.889	6.81
305.357	6.28
305.825	6.05
306.294	6.99
306.762	6.76
307.23	6.92
307.698	6.92
308.166	6.28
308.634	6.52
309.103	6.52
309.571	6.76
310.039	6.68
310.507	6.29
310.975	6.49
311.442	5.99
311.91	6.15
312.378	7.42
312.846	6.21
313.314	6.49
313.782	6.59
314.249	6.65
314.717	7.14
315.185	6.46
315.652	6.42
316.12	6.09
316.588	5.65
317.055	7.27
317.523	6.26
317.99	6.61
318.458	6.57
318.925	6.68
319.393	6.52
319.86	6.3
320.328	6.46
320.795	6.29
321.262	7.37
321.73	5.62
322.197	6.36
322.664	6.07
323.131	6.74
323.598	7.51
324.066	6.21
324.533	6.29
325	6.6
325.467	7.76
325.934	6.71
326.401	6.44
326.868	5.89
327.335	7.02
327.802	5.97
328.269	5.93
328.735	7.01
329.202	6.68
329.669	6.95
330.136	7.02
330.603	6.56
331.069	6.88
331.536	6.34
332.003	7.15
332.469	6.41
332.936	6.94
333.402	7.14
333.869	6.63
334.336	6.18
334.802	6.41
335.268	5.84
335.735	7.01
336.201	6.36
336.668	6.87
337.134	6.13
337.6	6.16
338.067	5.73
338.533	6.92
338.999	6.61
339.465	7.02
339.931	6.62
340.398	7.11
340.864	6.25
341.33	6.02
341.796	7.24
342.262	6.42
342.728	6.47
343.194	6.72
343.66	6.03
344.126	6.21
344.592	7.2
345.057	6.17
345.523	5.38
345.989	6.59
346.455	6.89
346.921	7.75
347.386	5.49
347.852	7.05
348.318	5.73
348.783	6.38
349.249	6.4
349.714	6.23
350.18	6.13
350.645	6.65
351.111	5.98
351.576	6.05
352.042	6.75
352.507	6.61
352.973	6.55
353.438	5.59
353.903	6.86
354.369	6.5
354.834	6.46
355.299	6.88
355.764	6.25
356.229	6.51
356.695	6.85
357.16	7.08
357.625	5.38
358.09	5.74
358.555	6.63
359.02	5.8
359.485	5.8
359.95	5.61
360.415	6.56
360.879	6.69
361.344	6.85
361.809	7.6
362.274	4.93
362.739	7.13
363.203	6.01
363.668	6.09
364.133	6.47
364.597	5.48
365.062	6.49
365.527	6.05
365.991	6.44
366.456	5.74
366.92	6.3
367.385	6.68
367.849	5.62
368.314	5.97
368.778	6.33
369.242	6.7
369.707	6.52
370.171	6.56
370.635	6.2
371.1	6.38
371.564	6.85
372.028	8.27
372.492	6.25
372.956	6.15
373.42	6.2
373.884	5.43
374.348	6.58
374.812	6.36
375.276	6.62
375.74	6.39
376.204	6.72
376.668	6.23
377.132	7.07
377.596	5.54
378.06	6.54
378.524	6.05
378.987	6.43
379.451	6.08
379.915	6.63
380.378	5.1
380.842	5.46
381.306	6.93
381.769	6.18
382.233	6.09
382.696	7.02
383.16	6.23
383.623	6.38
384.087	5.98
384.55	6.02
385.014	6.3
385.477	6.39
385.94	6.66
386.404	6.77
386.867	6.4
387.33	5.89
387.793	6.68
388.256	6.11
388.72	6.04
389.183	6.72
389.646	6.32
390.109	5.83
390.572	7.24
391.035	6.06
391.498	6.96
391.961	6.77
392.424	5.87
392.887	5.8
393.35	5.1
393.812	6.65
394.275	5.31
394.738	6.21
395.201	7
395.664	6.32
396.126	6.42
396.589	5.88
397.052	5.99
397.514	6.07
397.977	6.12
398.439	6.57
398.902	5.45
399.364	6.23
399.827	5.84
400.289	6.39
400.752	6.66
401.214	6.5
401.676	6.34
402.139	5.16
402.601	6.36
403.063	6.5
403.525	7.2
403.988	5.27
404.45	6.07
404.912	5.91
405.374	5.39
405.836	6.14
406.298	5.5
406.76	6.09
407.222	5.69
407.684	5.79
408.146	5.32
408.608	5.79
409.07	4.96
409.532	5.51
409.994	5.27
410.456	6.03
410.917	6.31
411.379	6.49
411.841	5.93
412.303	6.26
412.764	7.34
413.226	6.28
413.687	5.97
414.149	5.17
414.611	5.53
415.072	6.39
415.534	6.14
415.995	6.09
416.457	5.09
416.918	5.5
417.379	6.06
417.841	5.25
418.302	5.85
418.763	5.75
419.225	6.58
419.686	5.08
420.147	5.05
420.608	6.59
421.069	5.71
421.53	5.79
421.991	5.87
422.453	5.48
422.914	6.73
423.375	5.57
423.836	5.38
424.297	5.89
424.757	6.4
425.218	5.65
425.679	6.54
426.14	6.26
426.601	5.81
427.062	4.41
427.522	5.95
427.983	5.72
428.444	5.49
428.904	5.55
429.365	6.03
429.826	6.57
430.286	6.58
430.747	7.84
431.207	5.04
431.668	7.01
432.128	5.71
432.589	6.67
433.049	4.76
433.509	5.6
433.97	4.77
434.43	6.9
434.89	6.02
435.351	4.1
435.811	5.88
436.271	5.96
436.731	7.11
437.191	6.89
437.651	5.87
438.112	6
438.572	6.07
439.032	5.76
439.492	5.64
439.952	7.47
440.412	5.44
440.871	6.24
441.331	5.53
441.791	7.56
442.251	5.29
442.711	6.15
443.171	6.31
443.63	5.7
444.09	6.84
444.55	6.65
445.009	7.03
445.469	6.07
445.929	5.98
446.388	6.62
446.848	7.08
447.307	5.42
447.767	5.43
448.226	7.24
448.686	4.02
449.145	5.62
449.604	4.98
450.064	6.8
450.523	7.11
450.982	6.61
451.442	6.79
451.901	8.27
452.36	5.04
452.819	6.44
453.278	6.39
453.737	7.3
454.197	7.23
454.656	5.36
455.115	6.47
455.574	6.63
456.033	6.95
456.492	6.03
456.95	6.48
457.409	6.49
457.868	7.44
458.327	6.28
458.786	5.39
459.245	5.52
459.703	5.66
460.162	6.79
460.621	4.49
461.079	4.43
461.538	6.07
461.997	6.56
462.455	5.64
462.914	6.86
463.372	5.72
463.831	5.05
464.289	6.24
464.748	6.51
465.206	6.03
465.664	5.71
466.123	4.85
466.581	5.89
467.039	7.67
467.497	5.77
467.956	6.92
468.414	6.64
468.872	5.99
469.33	6.79
469.788	7.06
470.246	7.57
470.704	4.2
471.162	6.5
471.62	8.21
472.078	6.26
472.536	4.15
472.994	6.06
473.452	5.7
473.91	6.12
474.368	6.15
474.826	6.03
475.283	7.86
475.741	6.13
476.199	5.44
476.656	7.05
477.114	6.79
477.572	7.37
478.029	6.88
478.487	5.22
478.944	6.03
479.402	7.04
479.859	5.07
480.317	5.96
480.774	9.38
481.232	6.41
481.689	6.16
482.146	6.79
482.604	6.66
483.061	6.08
483.518	6.71
483.975	5.76
484.433	6.42
484.89	7.27
485.347	6.84
485.804	7.37
486.261	8.25
486.718	7.9
487.175	7.21
487.632	7.14
488.089	6.8
488.546	8.14
489.003	8.21
489.46	8.05
489.917	6.74
490.373	7.22
490.83	7.22
491.287	6.88
491.744	6.96
492.2	7.86
492.657	5.8
493.114	6.65
493.57	5.24
494.027	10.14
494.484	7.99
494.94	6.08
495.397	7.99
495.853	8.09
496.31	8.64
496.766	8.03
497.222	7.24
497.679	6.08
498.135	7.86
498.591	7.36
499.048	6.25
499.504	7.31
499.96	8.47
500.416	6.65
500.872	8.48
501.329	7.39
501.785	8.23
502.241	5.92
502.697	7.87
503.153	7.53
503.609	7.35
504.065	7.39
504.521	5.85
504.977	7.55
505.432	5.81
505.888	7.38
506.344	6.75
506.8	7.2
507.256	7.19
507.711	7.01
508.167	9.15
508.623	7.48
509.078	8.19
509.534	7.15
509.99	9.89
510.445	7.08
510.901	7.39
511.356	8.4
511.812	7.77
512.267	6.48
512.722	6.32
513.178	8.2
513.633	7.74
514.089	7.19
514.544	8.91
514.999	7.91
515.454	6.65
515.91	7.79
516.365	7.02
516.82	7.16
517.275	7.93
517.73	6.84
518.185	7.05
518.64	6.93
519.095	7.41
519.55	7.34
520.005	8.27
520.46	6.87
520.915	6.55
521.37	5.43
521.825	7.53
522.28	7.35
522.734	8.13
523.189	7.69
523.644	6.69
524.099	7.61
524.553	8.87
525.008	7.16
525.462	8.21
525.917	8.13
526.372	7.65
526.826	7.55
527.281	7.28
527.735	7.65
528.19	7.75
528.644	8.13
529.098	7.68
529.553	7.51
530.007	8.4
530.461	6.36
530.916	6.9
531.37	6.36
531.824	8.43
532.278	7.52
532.732	6.84
533.186	6.76
533.641	6.71
534.095	8.59
534.549	6.03
535.003	8.71
535.457	8.6
535.911	8.92
536.365	8.23
536.818	8.14
537.272	8.44
537.726	8.14
538.18	7.07
538.634	7.36
539.087	9.19
539.541	7.76
539.995	8.19
540.449	7.26
540.902	6.86
541.356	7.33
541.809	7.97
542.263	7.12
542.716	7.38
543.17	5.74
543.623	8.79
544.077	6.74
544.53	8.43
544.984	8.2
545.437	6.49
545.89	8.22
546.344	6.15
546.797	8.11
547.25	8.52
547.703	8.2
548.157	7.17
548.61	7.45
549.063	9.58
549.516	7.86
549.969	8.61
550.422	7.47
550.875	8.04
551.328	8.24
551.781	8.38
552.234	8.58
552.687	7.85
553.14	8.18
553.592	7.37
554.045	8.73
554.498	7.31
554.951	6.78
555.404	7.63
555.856	8.47
556.309	8.77
556.762	8.78
557.214	7.55
557.667	7.59
558.119	8.61
558.572	7.05
559.024	8.79
559.477	8.18
559.929	7.96
560.382	8.34
560.834	8.17
561.286	8.75
561.739	7.52
562.191	8.1
562.643	8.47
563.095	8.38
563.548	7.35
564	8.52
564.452	7.76
564.904	8.19
565.356	7.51
565.808	7.23
566.26	8.09
566.712	7.96
567.164	8.85
567.616	8.57
568.068	9.15
568.52	8.18
568.972	8.7
569.424	8.94
569.876	8.36
570.327	8.44
570.779	8.07
571.231	8.37
571.682	7.98
572.134	7.93
572.586	9.31
573.037	8.37
573.489	7.13
573.941	8.44
574.392	8.47
574.844	7.32
575.295	8.94
575.746	8.07
576.198	8.52
576.649	8.74
577.101	8.91
577.552	9.32
578.003	7.79
578.454	9.07
578.906	7.64
579.357	8.25
579.808	8.33
580.259	8.35
580.71	8.9
581.161	7.83
581.612	8.1
582.064	8.06
582.515	8.42
582.965	8.11
583.416	8.48
583.867	8.36
584.318	9.19
584.769	8.45
585.22	7.92
585.671	8.05
586.122	9.05
586.572	9.1
587.023	8.99
587.474	7.71
587.924	8.84
588.375	8.16
588.826	8.11
589.276	9.17
589.727	7.2
590.177	7.78
590.628	8.78
591.078	7.73
591.529	8.91
591.979	8.52
592.429	8.41
592.88	9.56
593.33	8.26
593.78	8.93
594.231	7.93
594.681	8.48
595.131	9.04
595.581	8.95
596.031	8.56
596.481	7.81
596.932	8.59
597.382	8.66
597.832	8.6
598.282	8.29
598.732	8.86
599.182	7.66
599.632	8.89
600.081	8.28
600.531	8.96
600.981	8.47
601.431	8.03
601.881	9.21
602.33	8.2
602.78	8.85
603.23	8.85
603.679	8.69
604.129	9.43
604.579	8.26
605.028	8.25
605.478	8.48
605.927	9.23
606.377	9.51
606.826	8.69
607.276	9.2
607.725	8.8
608.175	8.74
608.624	9.38
609.073	8.92
609.522	8.31
609.972	7.9
610.421	8.48
610.87	8.13
611.319	9.04
611.768	9.46
612.218	8.8
612.667	8.44
613.116	8.64
613.565	9.26
614.014	8.76
614.463	9.29
614.912	8.64
615.361	8.97
615.81	8.95
616.258	9.35
616.707	8.87
617.156	8.67
617.605	8.41
618.054	8.91
618.502	9.82
618.951	8.99
619.4	9.4
619.848	8.51
620.297	9.5
620.745	9.68
621.194	8.82
621.642	8.29
622.091	8.69
622.539	9.04
622.988	8.48
623.436	9.3
623.885	8.87
624.333	9.3
624.781	9.4
625.23	9.01
625.678	9.23
626.126	8.88
626.574	8.22
627.022	8.4
627.471	9.05
627.919	9.19
628.367	8.79
628.815	8.47
629.263	8.32
629.711	8.95
630.159	9.3
630.607	8.69
631.055	9.17
631.503	9.32
631.95	9.5
632.398	9
632.846	9.61
633.294	9.5
633.742	8.85
634.189	8.76
634.637	8.52
635.085	9.15
635.532	9.05
635.98	8.97
636.427	8.64
636.875	9.36
637.323	9.43
637.77	8.59
638.217	9.73
638.665	8.98
639.112	9.37
639.56	9.06
640.007	9.14
640.454	9
640.902	8.98
641.349	8.58
641.796	9.51
642.243	9.2
642.69	9.16
643.138	9.1
643.585	9.45
644.032	9.47
644.479	9.32
644.926	9.26
645.373	9.22
645.82	9.56
646.267	9.2
646.714	9.28
647.161	9.88
647.607	9.68
648.054	8.56
648.501	9.33
648.948	9.45
649.395	8.74
649.841	9.15
650.288	8.94
650.735	9.11
651.181	9.1
651.628	9.03
652.075	9.55
652.521	8.93
652.968	8.95
653.414	8.97
653.861	8.62
654.307	9.31
654.753	8.84
655.2	9.09
655.646	8.78
656.092	8.65
656.539	9.36
656.985	9.1
657.431	8.84
657.877	9.65
658.324	8.47
658.77	9.23
659.216	9.6
659.662	9.36
660.108	9.16
660.554	9.75
661	9.88
661.446	9.18
661.892	9.57
662.338	8.96
662.784	9.82
663.23	9.55
663.675	9.18
664.121	9.72
664.567	9.17
665.013	9.32
665.458	9.71
665.904	9.35
666.35	9.34
666.795	9.32
667.241	9.86
667.687	9.2
668.132	9.38
668.578	9.18
669.023	9.5
669.469	9.48
669.914	9.4
670.359	9.43
670.805	9.68
671.25	9.4
671.695	9.4
672.141	9.31
672.586	10.02
673.031	9.85
673.476	9.34
673.922	9.57
674.367	9
674.812	9.6
675.257	9.49
675.702	9.23
676.147	9.26
676.592	9.65
677.037	9.01
677.482	9.45
677.927	9.16
678.372	8.92
678.817	9.55
679.261	9.38
679.706	9.42
680.151	9.65
680.596	9.44
681.04	9.36
681.485	9.61
681.93	9.51
682.374	9.53
682.819	10.04
683.264	9.66
683.708	10.22
684.153	9.15
684.597	10.09
685.042	9.17
685.486	9.5
685.93	9.52
686.375	9.72
686.819	9.42
687.263	9.47
687.708	9.51
688.152	9.3
688.596	9.52
689.04	9.79
689.485	10.03
689.929	10.07
690.373	9.42
690.817	9.65
691.261	9.76
691.705	9.96
692.149	9.63
692.593	9.73
693.037	9.26
693.481	10.01
693.925	9.95
694.369	9.4
694.812	9.45
695.256	10.27
695.7	10.03
696.144	9.48
696.587	10.07
697.031	9.94
697.475	9.61
697.918	9.95
698.362	9.66
698.806	10.16
699.249	9.94
699.693	9.61
700.136	10.25
700.58	9.62
701.023	9.56
701.466	9.52
701.91	9.77
702.353	9.77
702.796	9.77
703.24	9.82
703.683	9.58
704.126	10.3
704.569	9.82
705.013	10.15
705.456	9.9
705.899	9.85
706.342	10.21
706.785	10.23
707.228	10.04
707.671	9.93
708.114	10.16
708.557	10.05
709	10.34
709.443	10.22
709.886	9.97
710.328	10.1
710.771	10.1
711.214	10.04
711.657	9.76
712.099	10.08
712.542	9.97
712.985	10.21
713.427	10.05
713.87	10.15
714.313	10.27
714.755	10.06
715.198	10.37
715.64	9.99
716.083	9.61
716.525	9.93
716.967	10.04
717.41	10.68
717.852	10.21
718.295	10.12
718.737	10.5
719.179	9.81
719.621	10.48
720.063	10.34
720.506	9.86
720.948	10.27
721.39	10.5
721.832	10.37
722.274	10.25
722.716	10.32
723.158	10.36
723.6	10.3
724.042	9.93
724.484	10.31
724.926	10.43
725.368	10.38
725.81	10.1
726.251	10.54
726.693	10.23
727.135	10.64
727.577	10.37
728.018	9.99
728.46	9.97
728.902	10.06
729.343	9.37
729.785	10.3
730.226	10.25
730.668	10.03
731.109	10.21
731.551	10.55
731.992	10.52
732.434	10.54
732.875	10.31
733.316	10.12
733.758	10.48
734.199	10.6
734.64	9.96
735.081	10.3
735.523	11.27
735.964	10.89
736.405	10.92
736.846	10.97
737.287	10.44
737.728	10.31
738.169	10.71
738.61	10.86
739.051	10.33
739.492	11.44
739.933	10.42
740.374	10.89
740.815	10.44
741.256	10.74
741.696	10.77
742.137	10.11
742.578	10.73
743.019	9.98
743.459	10.47
743.9	10.95
744.341	10.03
744.781	10.48
745.222	10.72
745.662	10.53
746.103	10.63
746.543	10.69
746.984	10.47
747.424	10.31
747.865	10.62
748.305	11.12
748.745	10.17
749.186	10.9
749.626	10.55
750.066	10.34
750.506	10.93
750.947	10.19
751.387	10.75
751.827	10.6
752.267	10.5
752.707	11.06
753.147	10.99
753.587	10.65
754.027	10.84
754.467	10.5
754.907	11.23
755.347	10.97
755.787	10.69
756.227	10.87
756.667	11.12
757.107	11.03
757.546	10.81
757.986	11.2
758.426	11.42
758.865	11.04
759.305	10.81
759.745	11.67
760.184	11.41
760.624	10.7
761.063	10.62
761.503	10.71
761.943	10.96
762.382	10.83
762.821	11.24
763.261	11.13
763.7	10.54
764.14	10.85
764.579	10.98
765.018	10.87
765.457	10.8
765.897	11.08
766.336	10.78
766.775	10.58
767.214	11
767.653	11.24
768.092	10.96
768.531	11.13
768.97	11.32
769.409	10.76
769.848	10.93
770.287	11.39
770.726	11.18
771.165	11.02
771.604	10.94
772.043	10.88
772.482	11.49
772.92	11.27
773.359	11.14
773.798	11.79
774.237	11.22
774.675	11.29
775.114	10.81
775.553	11.39
775.991	10.9
776.43	11.41
776.868	11.02
777.307	11.17
777.745	11.16
778.184	11.54
778.622	11.15
779.06	11.27
779.499	11.33
779.937	11.59
780.375	10.76
780.814	10.96
781.252	11.4
781.69	11.32
782.128	11.54
782.566	11.33
783.004	11.27
783.443	11.75
783.881	11.45
784.319	11.21
784.757	11.77
785.195	11.35
785.633	12.02
786.071	11.2
786.508	11.53
786.946	11.38
787.384	11.27
787.822	11.25
788.26	11.46
788.697	11.65
789.135	11.43
789.573	11.34
790.011	11.42
790.448	11.41
790.886	11.88
791.323	11.45
791.761	11.39
792.198	11.48
792.636	11.38
793.073	11.27
793.511	11.62
793.948	11.88
794.386	11.76
794.823	11.5
795.26	11.34
795.698	11.72
796.135	11.54
796.572	11.27
797.009	11.32
797.446	11.44
797.884	11.76
798.321	11.78
798.758	11.29
799.195	11.36
799.632	11.87
800.069	11.9
800.506	11.69
800.943	11.97
801.38	11.31
801.817	11.7
802.254	11.53
802.69	11.59
803.127	11.77
803.564	11.84
804.001	12.09
804.438	11.82
804.874	12.21
805.311	11.4
805.748	12.12
806.184	11.88
806.621	11.75
807.057	11.59
807.494	12.04
807.93	11.61
808.367	11.79
808.803	11.92
809.24	11.84
809.676	12
810.112	11.93
810.549	11.81
810.985	11.9
811.421	12.24
811.857	11.71
812.294	11.7
812.73	12.33
813.166	12.04
813.602	12.12
814.038	11.9
814.474	11.25
814.91	11.77
815.346	11.85
815.782	11.33
816.218	12.09
816.654	12.03
817.09	11.79
817.526	12.36
817.962	11.74
818.398	12.3
818.833	12.18
819.269	12.35
819.705	12.15
820.141	12.31
820.576	11.78
821.012	12.34
821.447	11.9
821.883	12.33
822.319	12.03
822.754	12.11
823.19	12.25
823.625	12.34
824.061	12.55
824.496	11.98
824.931	12.33
825.367	12.3
825.802	12.39
826.237	12.4
826.673	12.41
827.108	12.76
827.543	12.25
827.978	12.47
828.413	12.11
828.849	12.59
829.284	12.41
829.719	12.67
830.154	12.43
830.589	12.94
831.024	12.37
831.459	12.38
831.894	12.26
832.329	12.32
832.763	12.47
833.198	12.41
833.633	12.63
834.068	12.94
834.503	12.45
834.937	12.39
835.372	12.61
835.807	12.78
836.241	12.42
836.676	12.45
