Data from JCR0007_SpectralonRef_Reflection_00001.txt Node
Date: Wed Jul 22 15:38:53 ACST 2020
User: Stacey Dix
Spectrometer: MAYP113282
Scans to average: 1
Trigger mode: 0
Integration Time (sec): 1.000000E-1
Electric dark correction enabled: true
Boxcar width: 0
XAxis mode: Wavelengths
Number of Pixels in Spectrum: 2068
>>>>>Begin Spectral Data<<<<<
198.791	-28
199.266	121.05
199.74	82.61
200.215	140
200.69	116.77
201.164	91.63
201.639	124.67
202.114	96.78
202.588	60.88
203.063	121.79
203.537	75.61
204.012	88.17
204.486	117.79
204.961	81.49
205.435	97.51
205.909	105.31
206.384	122.55
206.858	115.66
207.332	105.48
207.807	106.69
208.281	133.41
208.755	122.6
209.229	148.46
209.703	108.1
210.177	108.36
210.651	86.97
211.126	114.41
211.6	123.29
212.074	83.3
212.548	106.12
213.021	73.59
213.495	108.77
213.969	99.2
214.443	79.29
214.917	105.57
215.391	104.07
215.864	90.15
216.338	93.93
216.812	95.96
217.286	76.05
217.759	104.06
218.233	104.43
218.706	116.53
219.18	75.3
219.654	101.23
220.127	105.92
220.6	119.13
221.074	106.44
221.547	102.09
222.021	96.41
222.494	96.26
222.967	90.63
223.441	91.56
223.914	113.58
224.387	82.03
224.86	100.77
225.334	87.27
225.807	107.1
226.28	108.42
226.753	84.55
227.226	106.61
227.699	89.27
228.172	86.21
228.645	100.11
229.118	82.37
229.591	112.58
230.064	103.08
230.537	98.7
231.01	90.31
231.482	99.07
231.955	91.14
232.428	98.98
232.901	101.37
233.373	100.46
233.846	91.33
234.319	97.05
234.791	99.06
235.264	105.42
235.736	97.83
236.209	94.93
236.681	97.28
237.154	92.96
237.626	99.51
238.099	91.01
238.571	100.3
239.044	94.94
239.516	100.16
239.988	96.82
240.46	96.55
240.933	101.16
241.405	95.9
241.877	97.36
242.349	98.48
242.821	100.14
243.293	97.42
243.765	100.56
244.237	95.54
244.71	94.75
245.181	94.36
245.653	96.33
246.125	100.79
246.597	97.31
247.069	102.04
247.541	100.91
248.013	97.74
248.485	98.37
248.956	99.12
249.428	96.93
249.9	93.6
250.371	100.55
250.843	97.17
251.315	99.56
251.786	101.26
252.258	100.66
252.729	93.37
253.201	95.54
253.672	94.53
254.144	97.82
254.615	97.4
255.086	97.18
255.558	93.15
256.029	98.2
256.5	98.81
256.972	96.36
257.443	97.2
257.914	95.28
258.385	98.5
258.856	95.08
259.327	96.27
259.799	97.03
260.27	97.13
260.741	93.86
261.212	98.39
261.683	98.06
262.154	98.18
262.624	96.17
263.095	96.14
263.566	98.69
264.037	94.81
264.508	96.51
264.979	97.96
265.449	95.21
265.92	97.21
266.391	98.45
266.861	98.31
267.332	96.65
267.803	97.59
268.273	98.23
268.744	101.75
269.214	97.16
269.685	98.06
270.155	102.24
270.626	98.32
271.096	99.55
271.566	95.05
272.037	95.46
272.507	97.4
272.977	98.27
273.448	97.34
273.918	101.55
274.388	97.97
274.858	99.42
275.328	98.94
275.798	99.26
276.268	98.01
276.738	95.83
277.208	101.96
277.678	96.71
278.148	93.72
278.618	94.66
279.088	94.84
279.558	96.36
280.028	99.95
280.498	97.07
280.968	99.54
281.437	93.52
281.907	92.07
282.377	96.37
282.847	100.62
283.316	97.44
283.786	100.62
284.255	100.19
284.725	92.57
285.194	96.13
285.664	97.31
286.133	97.67
286.603	98.95
287.072	98.49
287.542	96.01
288.011	95.62
288.48	99.74
288.95	97.67
289.419	101.43
289.888	97.07
290.357	92.72
290.827	94.26
291.296	93.4
291.765	96.16
292.234	96.5
292.703	98.43
293.172	102.32
293.641	96.7
294.11	98.28
294.579	97.37
295.048	99.22
295.517	96.58
295.986	99.11
296.455	94.55
296.923	95.29
297.392	97.9
297.861	93.44
298.33	101.4
298.798	95.27
299.267	96.78
299.736	94.28
300.204	95.43
300.673	97.62
301.141	94.02
301.61	99.18
302.079	99.05
302.547	96.51
303.015	101.34
303.484	100.49
303.952	95.86
304.421	100.77
304.889	96.26
305.357	96.09
305.825	97.33
306.294	98.08
306.762	98.55
307.23	96.16
307.698	92.71
308.166	97.34
308.634	95.25
309.103	96.39
309.571	99.84
310.039	96.78
310.507	99.09
310.975	99.27
311.442	94.83
311.91	99.41
312.378	98.96
312.846	94.77
313.314	97.72
313.782	97.97
314.249	93.61
314.717	97.34
315.185	95.73
315.652	95.27
316.12	100.13
316.588	98.66
317.055	95.22
317.523	100.02
317.99	94.93
318.458	94.77
318.925	96.46
319.393	94.77
319.86	96.91
320.328	96.36
320.795	96.86
321.262	102.46
321.73	99.12
322.197	99.04
322.664	98.15
323.131	93.77
323.598	98.23
324.066	94.81
324.533	95.66
325	94.83
325.467	97.7
325.934	95
326.401	97.42
326.868	96.24
327.335	99.49
327.802	95.29
328.269	97.09
328.735	96.46
329.202	96.21
329.669	98.06
330.136	96.2
330.603	94.88
331.069	94.15
331.536	99.2
332.003	96.01
332.469	93.98
332.936	95.69
333.402	95.8
333.869	96.67
334.336	94.16
334.802	98.19
335.268	96.29
335.735	96.43
336.201	97.87
336.668	99.05
337.134	100.34
337.6	98.31
338.067	98.25
338.533	93.42
338.999	97.27
339.465	98.65
339.931	94.35
340.398	93.36
340.864	94.93
341.33	97.05
341.796	99.3
342.262	97.76
342.728	96.52
343.194	97.98
343.66	100.87
344.126	99.73
344.592	97.62
345.057	97.75
345.523	91.83
345.989	96.45
346.455	96.05
346.921	95.95
347.386	98.33
347.852	98.83
348.318	101.6
348.783	95.44
349.249	93.78
349.714	97.38
350.18	101.66
350.645	101.2
351.111	96.45
351.576	94.91
352.042	96.15
352.507	94.76
352.973	97.9
353.438	93.64
353.903	99.28
354.369	99.12
354.834	101.17
355.299	100.75
355.764	97.65
356.229	96.55
356.695	95.99
357.16	97.73
357.625	94.2
358.09	98.32
358.555	95.18
359.02	96.16
359.485	94.94
359.95	100.21
360.415	99.18
360.879	102.66
361.344	97.29
361.809	97.92
362.274	94.84
362.739	98.07
363.203	101.52
363.668	98.06
364.133	97.23
364.597	99.41
365.062	100.02
365.527	96.88
365.991	98.1
366.456	96.53
366.92	96.76
367.385	99.96
367.849	95.7
368.314	99.7
368.778	98.37
369.242	98.21
369.707	94.49
370.171	95.14
370.635	95.99
371.1	95.54
371.564	98.1
372.028	95.97
372.492	98.16
372.956	99.1
373.42	94.48
373.884	95.86
374.348	95.44
374.812	94.81
375.276	95.61
375.74	95.91
376.204	98.32
376.668	95.9
377.132	98.89
377.596	100.69
378.06	98.96
378.524	100.79
378.987	95.19
379.451	99.39
379.915	96.54
380.378	96.94
380.842	96.54
381.306	97.91
381.769	97.5
382.233	98.16
382.696	97.27
383.16	99.48
383.623	96.42
384.087	98.26
384.55	95.97
385.014	98.06
385.477	96.28
385.94	97.95
386.404	98.72
386.867	101.17
387.33	97.74
387.793	95.24
388.256	96.57
388.72	94.02
389.183	99.96
389.646	99.8
390.109	100.62
390.572	100.9
391.035	98.79
391.498	93.83
391.961	98.15
392.424	93.84
392.887	97.78
393.35	96.85
393.812	96.07
394.275	98.34
394.738	99.08
395.201	95.17
395.664	98.12
396.126	98.83
396.589	100.79
397.052	98.66
397.514	102.39
397.977	99.92
398.439	100.42
398.902	98.06
399.364	98.67
399.827	98.04
400.289	98.26
400.752	98.16
401.214	99.16
401.676	96.94
402.139	99.84
402.601	96.9
403.063	95.74
403.525	96.89
403.988	99.31
404.45	98.81
404.912	96.79
405.374	96.53
405.836	95.71
406.298	95.93
406.76	99.5
407.222	98.89
407.684	94.86
408.146	95.35
408.608	97.69
409.07	97.96
409.532	95.02
409.994	101.44
410.456	100.18
410.917	95.67
411.379	101.91
411.841	96.66
412.303	97.93
412.764	97.5
413.226	96.42
413.687	95.4
414.149	95.95
414.611	101.19
415.072	97.68
415.534	98.32
415.995	99.29
416.457	96.38
416.918	98.73
417.379	94.98
417.841	97.55
418.302	101.77
418.763	97.93
419.225	99.35
419.686	97.46
420.147	96.2
420.608	100.42
421.069	99.16
421.53	93.31
421.991	97.32
422.453	94.8
422.914	101.78
423.375	97.84
423.836	98.55
424.297	98.38
424.757	100.4
425.218	94.25
425.679	97.61
426.14	96.36
426.601	98.59
427.062	101.49
427.522	99.63
427.983	99.78
428.444	101.31
428.904	98.26
429.365	98.71
429.826	99.19
430.286	95.8
430.747	92.88
431.207	102.77
431.668	95.98
432.128	96.85
432.589	99.42
433.049	95.9
433.509	100.03
433.97	94.28
434.43	97.38
434.89	98.14
435.351	97.33
435.811	102.69
436.271	97.6
436.731	99.52
437.191	102.67
437.651	105.51
438.112	97.24
438.572	98.44
439.032	98.33
439.492	97.3
439.952	97.37
440.412	100.2
440.871	102.93
441.331	98.49
441.791	99.42
442.251	98.91
442.711	99.68
443.171	96.81
443.63	100.56
444.09	96.29
444.55	98.48
445.009	94.63
445.469	94.14
445.929	99.35
446.388	94.69
446.848	103.32
447.307	96.11
447.767	91.38
448.226	101.54
448.686	96.38
449.145	99.07
449.604	97.97
450.064	97.92
450.523	99.95
450.982	100.78
451.442	95.73
451.901	100.25
452.36	97.53
452.819	98.28
453.278	99.16
453.737	104.58
454.197	100.26
454.656	98.59
455.115	94.64
455.574	96.08
456.033	95.12
456.492	98.71
456.95	105.56
457.409	103.03
457.868	96.82
458.327	93.71
458.786	97.78
459.245	94.9
459.703	101.92
460.162	100.46
460.621	100.79
461.079	96.77
461.538	95.02
461.997	98.08
462.455	98.52
462.914	99.85
463.372	98.64
463.831	102.16
464.289	96.06
464.748	94.28
465.206	99
465.664	96.49
466.123	100.77
466.581	95.89
467.039	98.33
467.497	100.52
467.956	99.47
468.414	98.7
468.872	103.21
469.33	102.83
469.788	99.45
470.246	99.54
470.704	98.38
471.162	97.47
471.62	98.63
472.078	98.66
472.536	100.96
472.994	98.17
473.452	92.25
473.91	104.4
474.368	100.64
474.826	98.71
475.283	103.77
475.741	101.36
476.199	100.03
476.656	97.56
477.114	98.67
477.572	98.45
478.029	97.42
478.487	101.77
478.944	92.45
479.402	96.68
479.859	95.65
480.317	97.07
480.774	96.58
481.232	98.16
481.689	104.84
482.146	98.08
482.604	93.74
483.061	96.76
483.518	97.32
483.975	93.54
484.433	99.62
484.89	100.04
485.347	94.54
485.804	99.83
486.261	98.19
486.718	100.34
487.175	98.14
487.632	101.7
488.089	96.98
488.546	100.36
489.003	92.96
489.46	106.15
489.917	94.59
490.373	100.03
490.83	96.17
491.287	101.48
491.744	95.99
492.2	100.24
492.657	93.42
493.114	97.26
493.57	100.76
494.027	100.55
494.484	97.24
494.94	97.34
495.397	99.31
495.853	102.56
496.31	103.47
496.766	99.31
497.222	100.03
497.679	99.52
498.135	104.01
498.591	97.29
499.048	102.12
499.504	99.23
499.96	94.82
500.416	96.03
500.872	95.53
501.329	99.55
501.785	99.94
502.241	101.35
502.697	96.75
503.153	98.92
503.609	100.67
504.065	100.03
504.521	98.07
504.977	96.51
505.432	100.03
505.888	99.08
506.344	102.46
506.8	92.93
507.256	97.75
507.711	97.11
508.167	99.04
508.623	94.88
509.078	98.37
509.534	99.47
509.99	103.83
510.445	96
510.901	95.76
511.356	100.57
511.812	94.65
512.267	101.77
512.722	98.19
513.178	96.21
513.633	97.05
514.089	97.57
514.544	101.62
514.999	97.94
515.454	102.19
515.91	99.61
516.365	95.62
516.82	97.25
517.275	96.99
517.73	100.86
518.185	102.57
518.64	99.32
519.095	95.88
519.55	99.07
520.005	99.89
520.46	102.69
520.915	101.66
521.37	98.51
521.825	96.1
522.28	100.51
522.734	99.68
523.189	101.99
523.644	97.46
524.099	95.9
524.553	99.6
525.008	99.47
525.462	98.97
525.917	99.39
526.372	98.27
526.826	104.76
527.281	99.95
527.735	97.08
528.19	98.41
528.644	99.01
529.098	94.88
529.553	100.24
530.007	98.62
530.461	99.57
530.916	102.91
531.37	95.27
531.824	99.44
532.278	96.3
532.732	103.14
533.186	96.34
533.641	97.92
534.095	100.1
534.549	96.26
535.003	100.03
535.457	94.15
535.911	98.93
536.365	103.08
536.818	99.71
537.272	101.38
537.726	101.46
538.18	98.16
538.634	97.15
539.087	99.4
539.541	101.14
539.995	98.82
540.449	98.56
540.902	98.88
541.356	98.86
541.809	99.62
542.263	101.29
542.716	98.87
543.17	100.66
543.623	100.26
544.077	94.7
544.53	98.28
544.984	99.5
545.437	96.43
545.89	102.73
546.344	96.94
546.797	99.21
547.25	98
547.703	100.02
548.157	101.23
548.61	97.87
549.063	102.81
549.516	98.13
549.969	99.25
550.422	99.95
550.875	95.24
551.328	97.55
551.781	100.58
552.234	95.52
552.687	98.53
553.14	96.25
553.592	98.02
554.045	101.02
554.498	96.74
554.951	100.35
555.404	95.09
555.856	97.11
556.309	97.24
556.762	97.5
557.214	101.99
557.667	97.08
558.119	100.88
558.572	98.45
559.024	98.95
559.477	96.61
559.929	100.31
560.382	100.13
560.834	97.05
561.286	102.96
561.739	103.3
562.191	97.08
562.643	97.65
563.095	97.7
563.548	98.51
564	96.74
564.452	97.42
564.904	96.54
565.356	100.44
565.808	100.69
566.26	97.02
566.712	98.78
567.164	95.39
567.616	97.08
568.068	95.86
568.52	99.82
568.972	95.92
569.424	100.12
569.876	100.16
570.327	97.02
570.779	97.08
571.231	98.24
571.682	98.29
572.134	101.27
572.586	100.81
573.037	100.63
573.489	101.25
573.941	98.13
574.392	99.42
574.844	100.06
575.295	100.81
575.746	102.98
576.198	96.81
576.649	96.1
577.101	102.12
577.552	99.46
578.003	98.76
578.454	99.69
578.906	98.28
579.357	97.39
579.808	96.52
580.259	98.13
580.71	97.98
581.161	101.76
581.612	97.8
582.064	100.85
582.515	98.34
582.965	95.25
583.416	100.92
583.867	102.8
584.318	99.29
584.769	100.11
585.22	99.74
585.671	95.77
586.122	99.2
586.572	101.06
587.023	100.29
587.474	98.04
587.924	98.06
588.375	99.09
588.826	99.97
589.276	97.8
589.727	99.14
590.177	99.01
590.628	96.76
591.078	100.02
591.529	98.96
591.979	102.68
592.429	98.42
592.88	98.76
593.33	100.48
593.78	97.91
594.231	98.4
594.681	97.39
595.131	97.23
595.581	100.02
596.031	97.15
596.481	104.04
596.932	96.6
597.382	100.89
597.832	100.38
598.282	97.89
598.732	102.05
599.182	100.43
599.632	99.51
600.081	97.16
600.531	99.62
600.981	98.48
601.431	99.57
601.881	101.24
602.33	100.24
602.78	100.55
603.23	98.32
603.679	98.58
604.129	101.03
604.579	96.87
605.028	101.43
605.478	99.66
605.927	97.12
606.377	101.09
606.826	96.85
607.276	100.43
607.725	99.64
608.175	97.72
608.624	97.02
609.073	97.74
609.522	99.61
609.972	100.18
610.421	100.01
610.87	95.46
611.319	99.02
611.768	97.91
612.218	100.21
612.667	99.19
613.116	99.55
613.565	100.33
614.014	101.53
614.463	99.51
614.912	98.61
615.361	100.13
615.81	98.42
616.258	98.69
616.707	98.54
617.156	101.38
617.605	99.87
618.054	101.59
618.502	97.99
618.951	98.3
619.4	99.62
619.848	97.51
620.297	99.73
620.745	97.65
621.194	98.83
621.642	99.8
622.091	98.75
622.539	98.91
622.988	98.59
623.436	100.65
623.885	97.7
624.333	97.99
624.781	100.94
625.23	95.86
625.678	100.21
626.126	96.16
626.574	100.83
627.022	97.07
627.471	99.12
627.919	99.53
628.367	97.35
628.815	101.47
629.263	100.29
629.711	99.92
630.159	100.63
630.607	98.78
631.055	100.42
631.503	97.54
631.95	100.32
632.398	100.22
632.846	99.95
633.294	99.35
633.742	100.19
634.189	98.78
634.637	99.24
635.085	99.22
635.532	99.92
635.98	99.19
636.427	99.86
636.875	99.92
637.323	100.01
637.77	97.56
638.217	98.83
638.665	99.55
639.112	99.95
639.56	98.86
640.007	100.01
640.454	98.7
640.902	100.1
641.349	97.59
641.796	96.93
642.243	97.63
642.69	98.59
643.138	99.28
643.585	98.89
644.032	97.75
644.479	97.95
644.926	99.78
645.373	96.95
645.82	98.47
646.267	100.87
646.714	101.22
647.161	99.62
647.607	99.79
648.054	97.12
648.501	98
648.948	100.59
649.395	98.89
649.841	102
650.288	98.09
650.735	99.21
651.181	98.64
651.628	101.38
652.075	99.9
652.521	99.66
652.968	98.17
653.414	97.99
653.861	100.95
654.307	99.93
654.753	99.07
655.2	96.58
655.646	98.83
656.092	99.07
656.539	101.05
656.985	98.15
657.431	100.19
657.877	101.66
658.324	101.24
658.77	99.93
659.216	98.5
659.662	101.22
660.108	100.16
660.554	99.7
661	101.35
661.446	99.47
661.892	100.42
662.338	99.04
662.784	99.57
663.23	98.09
663.675	98.15
664.121	100.19
664.567	101.26
665.013	99.1
665.458	97.6
665.904	97.55
666.35	97.26
666.795	97.43
667.241	98.67
667.687	97.24
668.132	97.26
668.578	96.42
669.023	99.06
669.469	99.91
669.914	99.05
670.359	99.17
670.805	100.32
671.25	99.5
671.695	96.9
672.141	100.08
672.586	97.1
673.031	98.28
673.476	99.44
673.922	97.94
674.367	98.48
674.812	99.71
675.257	97.26
675.702	99.62
676.147	100.49
676.592	96.28
677.037	98.45
677.482	99.76
677.927	98.14
678.372	98.87
678.817	97.68
679.261	98.86
679.706	99.2
680.151	99.53
680.596	99.32
681.04	99.83
681.485	100.07
681.93	99.79
682.374	99.92
682.819	99.22
683.264	100.35
683.708	99.3
684.153	99.48
684.597	99.12
685.042	103.08
685.486	97.01
685.93	97.6
686.375	98.87
686.819	98.41
687.263	96.02
687.708	99.62
688.152	99.36
688.596	98.68
689.04	98.93
689.485	99.55
689.929	97.51
690.373	99.75
690.817	98.72
691.261	100.01
691.705	100.16
692.149	100.89
692.593	99.62
693.037	98.64
693.481	97.57
693.925	99.12
694.369	99.47
694.812	97.85
695.256	98.61
695.7	99.2
696.144	99.13
696.587	99.97
697.031	99.74
697.475	99.18
697.918	100.46
698.362	98.94
698.806	100.31
699.249	99.76
699.693	97.8
700.136	97.41
700.58	98.39
701.023	101.05
701.466	100.3
701.91	98.45
702.353	100.49
702.796	99.88
703.24	99.33
703.683	97.72
704.126	98.09
704.569	100.46
705.013	98.59
705.456	97.18
705.899	99.08
706.342	98.19
706.785	97.62
707.228	102.26
707.671	100.01
708.114	101.19
708.557	97.76
709	99.79
709.443	100.22
709.886	99.19
710.328	100.39
710.771	98.96
711.214	97.7
711.657	99.62
712.099	101.07
712.542	98.95
712.985	100.5
713.427	98.55
713.87	98.68
714.313	99.42
714.755	98.6
715.198	98.57
715.64	98.37
716.083	100.46
716.525	98.84
716.967	100.99
717.41	98.94
717.852	98.59
718.295	97.48
718.737	98.37
719.179	99.49
719.621	97.88
720.063	100.8
720.506	100.08
720.948	97.57
721.39	98.4
721.832	100.67
722.274	99.29
722.716	99.91
723.158	100.62
723.6	99.97
724.042	98.54
724.484	99.36
724.926	98.1
725.368	98.54
725.81	99.16
726.251	97.54
726.693	99.93
727.135	101.83
727.577	99.26
728.018	97.39
728.46	98.86
728.902	98.45
729.343	97.6
729.785	98.2
730.226	99.38
730.668	99.85
731.109	99.79
731.551	97.9
731.992	98.71
732.434	99.53
732.875	101.71
733.316	97.29
733.758	99.79
734.199	97.97
734.64	97.65
735.081	99.32
735.523	98.91
735.964	99.2
736.405	98.92
736.846	97.65
737.287	98.87
737.728	97.74
738.169	98.77
738.61	99
739.051	100.81
739.492	99.91
739.933	98.09
740.374	98.8
740.815	99.75
741.256	100.73
741.696	98.88
742.137	98.75
742.578	99.61
743.019	97.65
743.459	99.33
743.9	96.08
744.341	99.39
744.781	97.42
745.222	100.05
745.662	99.14
746.103	99.77
746.543	99.41
746.984	98.26
747.424	98.73
747.865	99.52
748.305	99.59
748.745	97.29
749.186	100.1
749.626	98.82
750.066	98.69
750.506	98.54
750.947	98.59
751.387	99.26
751.827	98.7
752.267	100.6
752.707	100.18
753.147	98.91
753.587	98.49
754.027	99.99
754.467	99.55
754.907	97.01
755.347	99.12
755.787	99.95
756.227	99.99
756.667	99.08
757.107	98.38
757.546	100.23
757.986	100.28
758.426	98.54
758.865	98.98
759.305	99.74
759.745	99.5
760.184	97.81
760.624	98.76
761.063	100.21
761.503	98.23
761.943	98.97
762.382	98.91
762.821	98.44
763.261	102.03
763.7	97.8
764.14	98.59
764.579	99.45
765.018	98.96
765.457	101.1
765.897	99.44
766.336	100.92
766.775	99.76
767.214	97.47
767.653	97.75
768.092	99.95
768.531	101.38
768.97	99.62
769.409	99.48
769.848	98.67
770.287	98.21
770.726	99.03
771.165	98.83
771.604	99.8
772.043	99.72
772.482	99.34
772.92	99.08
773.359	98.23
773.798	96.57
774.237	98.46
774.675	97.67
775.114	99.78
775.553	99.43
775.991	99.62
776.43	99.96
776.868	97.33
777.307	100.09
777.745	99.54
778.184	99.74
778.622	99.5
779.06	98.68
779.499	100.43
779.937	100.1
780.375	99.59
780.814	100.5
781.252	97.89
781.69	101.33
782.128	100.39
782.566	98.39
783.004	98.76
783.443	99.51
783.881	98.82
784.319	98.01
784.757	99.25
785.195	97.55
785.633	99.42
786.071	99.62
786.508	99.65
786.946	98.91
787.384	100.49
787.822	99.39
788.26	99.83
788.697	98.83
789.135	98.97
789.573	99.38
790.011	99.6
790.448	98.25
790.886	99.24
791.323	99.53
791.761	97.28
792.198	98.66
792.636	97.6
793.073	99.22
793.511	100.93
793.948	99.91
794.386	98.69
794.823	99.53
795.26	98.24
