Data from JCR0035_SpectralonRef_Reflection_00001.txt Node
Date: Fri Jul 31 15:41:19 ACST 2020
User: Stacey Dix
Spectrometer: MAYP113282
Scans to average: 1
Trigger mode: 0
Integration Time (sec): 1.000000E-1
Electric dark correction enabled: true
Boxcar width: 0
XAxis mode: Wavelengths
Number of Pixels in Spectrum: 2068
>>>>>Begin Spectral Data<<<<<
198.791	387.5
199.266	-3.57
199.74	110
200.215	-25
200.69	98.18
201.164	96.71
201.639	100.33
202.114	69
202.588	100.35
203.063	108.85
203.537	51.48
204.012	98.8
204.486	91.86
204.961	91.86
205.435	84.29
205.909	91.93
206.384	121.61
206.858	92.68
207.332	112.3
207.807	70.53
208.281	80.96
208.755	74.08
209.229	98.04
209.703	92.02
210.177	104.9
210.651	126.13
211.126	73.28
211.6	110.46
212.074	107.28
212.548	109.21
213.021	130.22
213.495	118.41
213.969	70.89
214.443	117.64
214.917	99.26
215.391	91.39
215.864	102.14
216.338	91.37
216.812	107
217.286	76.56
217.759	110.56
218.233	108.53
218.706	92.48
219.18	89.9
219.654	122.48
220.127	82.03
220.6	120.47
221.074	101.67
221.547	112.23
222.021	102.02
222.494	97.98
222.967	96.03
223.441	95.43
223.914	86.17
224.387	107.32
224.86	97.67
225.334	103.11
225.807	95.04
226.28	103.13
226.753	104.74
227.226	96.04
227.699	103.34
228.172	99.43
228.645	96.11
229.118	98.56
229.591	98.64
230.064	97.98
230.537	97.17
231.01	100.46
231.482	92
231.955	92.32
232.428	98.83
232.901	94.78
233.373	98.16
233.846	100.65
234.319	97.09
234.791	100.58
235.264	104.51
235.736	99.4
236.209	103.25
236.681	96.38
237.154	101.52
237.626	99.94
238.099	100.01
238.571	101.42
239.044	101.7
239.516	99.88
239.988	101.39
240.46	102.17
240.933	101.49
241.405	100.67
241.877	98.7
242.349	97.92
242.821	99.24
243.293	102.22
243.765	97.47
244.237	97.73
244.71	101.76
245.181	97.08
245.653	106.16
246.125	98.8
246.597	96.25
247.069	99.76
247.541	103.22
248.013	100.38
248.485	99.52
248.956	101.31
249.428	102.31
249.9	98.86
250.371	98.56
250.843	100.82
251.315	99.51
251.786	98.24
252.258	100.01
252.729	98.12
253.201	101.18
253.672	99.77
254.144	101.42
254.615	99.72
255.086	99.9
255.558	99.77
256.029	101.56
256.5	99.64
256.972	100.47
257.443	97.88
257.914	97.52
258.385	99.65
258.856	99.26
259.327	99.94
259.799	99.06
260.27	98.14
260.741	100.22
261.212	101.45
261.683	99.91
262.154	100.42
262.624	101.92
263.095	97.82
263.566	99.63
264.037	98.21
264.508	99.32
264.979	100.92
265.449	100.77
265.92	100.13
266.391	99.54
266.861	99.75
267.332	101.17
267.803	101.48
268.273	101.74
268.744	100.18
269.214	100.31
269.685	99.63
270.155	99.08
270.626	99.97
271.096	102.43
271.566	99.03
272.037	103.14
272.507	101.1
272.977	98.44
273.448	100.79
273.918	101.67
274.388	103.16
274.858	100.91
275.328	98.92
275.798	104.32
276.268	100.31
276.738	98.62
277.208	104.08
277.678	101.5
278.148	101.13
278.618	99.61
279.088	101.03
279.558	100.23
280.028	100.31
280.498	100.6
280.968	98.72
281.437	101.55
281.907	98.99
282.377	102.65
282.847	98.25
283.316	98.74
283.786	100.04
284.255	97.29
284.725	102.01
285.194	98.38
285.664	101.96
286.133	101.93
286.603	98.88
287.072	99.38
287.542	97.47
288.011	101.59
288.48	101.11
288.95	102.23
289.419	100.1
289.888	99.72
290.357	98.16
290.827	100.36
291.296	102.83
291.765	101.5
292.234	101.06
292.703	98.79
293.172	100.46
293.641	101.84
294.11	100.76
294.579	100.96
295.048	101.91
295.517	100.64
295.986	99.84
296.455	100.68
296.923	100.91
297.392	98.92
297.861	99.37
298.33	98.66
298.798	100.92
299.267	101.72
299.736	101.04
300.204	98.76
300.673	98.19
301.141	100.79
301.61	102.25
302.079	97.82
302.547	98.33
303.015	101.89
303.484	100.34
303.952	98.38
304.421	97.77
304.889	99.63
305.357	98.5
305.825	99.59
306.294	100.71
306.762	99.54
307.23	100.36
307.698	97.93
308.166	97.66
308.634	98.58
309.103	101.22
309.571	99.23
310.039	101.92
310.507	98.34
310.975	100.47
311.442	101.06
311.91	97.53
312.378	98.68
312.846	97.45
313.314	100.75
313.782	98.36
314.249	101.01
314.717	101.55
315.185	97.7
315.652	100.96
316.12	99.6
316.588	99.17
317.055	101.3
317.523	101.53
317.99	100.76
318.458	102.38
318.925	98.61
319.393	101.41
319.86	97.19
320.328	99.68
320.795	98.94
321.262	99.12
321.73	102.52
322.197	96
322.664	100.43
323.131	98.89
323.598	101.78
324.066	99.46
324.533	97.77
325	99.12
325.467	98.87
325.934	99.97
326.401	97.85
326.868	99.84
327.335	98.43
327.802	99.17
328.269	98.73
328.735	95.5
329.202	98.98
329.669	100.58
330.136	100.05
330.603	98.97
331.069	97.34
331.536	100.21
332.003	98.35
332.469	102.37
332.936	99.03
333.402	96.8
333.869	98.83
334.336	99.76
334.802	101.08
335.268	96.38
335.735	97.12
336.201	98.99
336.668	100.19
337.134	100.78
337.6	99.57
338.067	99.39
338.533	98.83
338.999	97.09
339.465	99.6
339.931	100.32
340.398	99.3
340.864	99.62
341.33	100.05
341.796	97.39
342.262	98.47
342.728	98.64
343.194	102.09
343.66	100.72
344.126	99.53
344.592	98.2
345.057	98.96
345.523	101.35
345.989	96.98
346.455	97.23
346.921	97.46
347.386	99.77
347.852	98.54
348.318	101.47
348.783	99.53
349.249	97.43
349.714	99.28
350.18	98.04
350.645	101.32
351.111	97.76
351.576	101.86
352.042	99.23
352.507	97.59
352.973	101.65
353.438	99.47
353.903	104.31
354.369	96.85
354.834	98.6
355.299	98.94
355.764	104.3
356.229	101.29
356.695	101.55
357.16	97.59
357.625	97.97
358.09	98.67
358.555	98.19
359.02	99.3
359.485	100.52
359.95	99.64
360.415	100.87
360.879	97.98
361.344	101.43
361.809	98.17
362.274	98.72
362.739	98.59
363.203	103.67
363.668	99.2
364.133	100.06
364.597	101.94
365.062	94.91
365.527	103.13
365.991	97.84
366.456	99.02
366.92	97.87
367.385	101.49
367.849	97.74
368.314	100.01
368.778	100.28
369.242	94.35
369.707	105.34
370.171	101.33
370.635	101.86
371.1	98.36
371.564	99
372.028	97.95
372.492	100.07
372.956	98.35
373.42	101.94
373.884	95.67
374.348	97.88
374.812	100.75
375.276	100.54
375.74	98.81
376.204	100.17
376.668	102.48
377.132	101.62
377.596	98.44
378.06	97.59
378.524	95.78
378.987	100.41
379.451	98.32
379.915	99.31
380.378	96.9
380.842	102.33
381.306	97.26
381.769	98.18
382.233	95.9
382.696	101.24
383.16	96.23
383.623	104.31
384.087	99.64
384.55	97.06
385.014	99.75
385.477	99.33
385.94	98.79
386.404	102.38
386.867	96.77
387.33	98.7
387.793	101.39
388.256	99.02
388.72	97.94
389.183	98.32
389.646	101.22
390.109	102.54
390.572	96.96
391.035	99.82
391.498	97.13
391.961	99.33
392.424	98.07
392.887	98.97
393.35	100.47
393.812	98.9
394.275	103.09
394.738	99.24
395.201	97.99
395.664	98.57
396.126	101.4
396.589	100.61
397.052	97.87
397.514	98.81
397.977	99.74
398.439	97.05
398.902	100.05
399.364	102.25
399.827	99.54
400.289	100.35
400.752	99.76
401.214	101.8
401.676	103.23
402.139	98.27
402.601	99.54
403.063	100.86
403.525	102.69
403.988	98.45
404.45	100.68
404.912	100.78
405.374	100.88
405.836	96.13
406.298	100.74
406.76	100.58
407.222	97.45
407.684	100.28
408.146	98.75
408.608	97.76
409.07	98.33
409.532	98.56
409.994	102.43
410.456	100.83
410.917	102.76
411.379	97.11
411.841	99.68
412.303	97.35
412.764	97.85
413.226	100.61
413.687	100.42
414.149	102.5
414.611	100.57
415.072	98.97
415.534	98.95
415.995	97.06
416.457	101.22
416.918	99.4
417.379	101
417.841	101.7
418.302	103.01
418.763	100.72
419.225	98.78
419.686	98.86
420.147	95.37
420.608	101.02
421.069	97
421.53	103.02
421.991	101.82
422.453	98.96
422.914	100.89
423.375	104.29
423.836	97.82
424.297	102.34
424.757	103.2
425.218	96.49
425.679	96.43
426.14	97.08
426.601	97.29
427.062	101.28
427.522	103.37
427.983	99.51
428.444	94.68
428.904	97.55
429.365	102.4
429.826	96.16
430.286	101.4
430.747	98.91
431.207	99.08
431.668	103.5
432.128	98.97
432.589	98.63
433.049	102.93
433.509	100.46
433.97	101.74
434.43	97.61
434.89	100.81
435.351	100.36
435.811	102.19
436.271	97.69
436.731	99.59
437.191	98.7
437.651	101.31
438.112	98.92
438.572	99.23
439.032	99.71
439.492	102.98
439.952	96.94
440.412	101.3
440.871	101.3
441.331	101.7
441.791	97.2
442.251	101.42
442.711	100.58
443.171	99.62
443.63	99.07
444.09	100.09
444.55	96.77
445.009	103.74
445.469	99.86
445.929	96.03
446.388	101.59
446.848	97.62
447.307	97.94
447.767	100.61
448.226	96.62
448.686	100.89
449.145	98.56
449.604	98.81
450.064	97.66
450.523	101.82
450.982	104.03
451.442	101.22
451.901	99.36
452.36	98.04
452.819	97.5
453.278	102.61
453.737	102.03
454.197	100.09
454.656	100.92
455.115	99.41
455.574	100.63
456.033	98.59
456.492	100.56
456.95	97.48
457.409	100.97
457.868	99.54
458.327	103.51
458.786	98.44
459.245	99.29
459.703	102.52
460.162	100.82
460.621	99.04
461.079	98.64
461.538	100.01
461.997	99.28
462.455	98.11
462.914	102.16
463.372	99.67
463.831	101.87
464.289	102.44
464.748	98.08
465.206	100.52
465.664	101.03
466.123	100.18
466.581	99.93
467.039	98.99
467.497	97.75
467.956	98.43
468.414	101
468.872	103.81
469.33	97.72
469.788	104.59
470.246	103.28
470.704	101.12
471.162	104.28
471.62	100.38
472.078	98.83
472.536	93.32
472.994	100.1
473.452	97.84
473.91	105.26
474.368	93.24
474.826	101.83
475.283	101.37
475.741	100.56
476.199	102.43
476.656	96.49
477.114	99.18
477.572	96.25
478.029	99.01
478.487	103.76
478.944	99.92
479.402	99.83
479.859	99.74
480.317	100.01
480.774	97.3
481.232	100.48
481.689	97.88
482.146	95.94
482.604	97.55
483.061	96.87
483.518	97.53
483.975	92.58
484.433	98.61
484.89	100.58
485.347	99.44
485.804	102.99
486.261	96.72
486.718	97.97
487.175	100.58
487.632	101.13
488.089	106.01
488.546	104.72
489.003	98.38
489.46	99.28
489.917	96.7
490.373	96.84
490.83	101.44
491.287	97.87
491.744	98.41
492.2	97.58
492.657	99.27
493.114	98.12
493.57	99.53
494.027	105.9
494.484	104.25
494.94	103.31
495.397	102.89
495.853	99.06
496.31	99.54
496.766	99.08
497.222	100.97
497.679	95.2
498.135	100.85
498.591	99.48
499.048	96.23
499.504	101.82
499.96	103.41
500.416	101.34
500.872	98.77
501.329	99.57
501.785	103.41
502.241	100.78
502.697	100.45
503.153	99.67
503.609	95.01
504.065	99.27
504.521	97.32
504.977	101.46
505.432	97.69
505.888	101.87
506.344	98.51
506.8	102.87
507.256	99.94
507.711	100.16
508.167	97.09
508.623	102.03
509.078	100.16
509.534	102.02
509.99	96.59
510.445	98.03
510.901	101.85
511.356	100.15
511.812	98.28
512.267	101.32
512.722	95.56
513.178	97.5
513.633	98.51
514.089	101.82
514.544	101.15
514.999	98.37
515.454	101.39
515.91	101.97
516.365	101.25
516.82	100.07
517.275	100.39
517.73	103.78
518.185	99.32
518.64	96.22
519.095	102.3
519.55	97.32
520.005	100.83
520.46	97.26
520.915	101.94
521.37	104.09
521.825	101.85
522.28	104.51
522.734	97.43
523.189	102.97
523.644	98.66
524.099	103.68
524.553	103.49
525.008	98.33
525.462	101.31
525.917	97.67
526.372	100.58
526.826	98.61
527.281	97.32
527.735	98.85
528.19	100.54
528.644	99.36
529.098	100.9
529.553	97.46
530.007	102.72
530.461	100.29
530.916	96.14
531.37	97.89
531.824	102.3
532.278	98.78
532.732	103.9
533.186	101.69
533.641	95.96
534.095	98.59
534.549	102.97
535.003	99.87
535.457	100.23
535.911	101.92
536.365	100.97
536.818	100.79
537.272	99.1
537.726	100.01
538.18	96.4
538.634	101.76
539.087	105.33
539.541	99.65
539.995	94.97
540.449	102.44
540.902	99.79
541.356	97.37
541.809	101.32
542.263	96.1
542.716	101.85
543.17	98.37
543.623	101.72
544.077	97.08
544.53	97.56
544.984	104.62
545.437	97.26
545.89	98.08
546.344	97.64
546.797	101.4
547.25	99.74
547.703	96.05
548.157	98.25
548.61	102.67
549.063	97.09
549.516	99.4
549.969	100.93
550.422	96.79
550.875	96.27
551.328	98.01
551.781	100.96
552.234	101.24
552.687	98.2
553.14	100.01
553.592	101.93
554.045	103.4
554.498	97.97
554.951	100.19
555.404	101.31
555.856	102.78
556.309	100.58
556.762	98.75
557.214	102.93
557.667	99.73
558.119	99.67
558.572	102.13
559.024	101.48
559.477	99.26
559.929	98.96
560.382	99.08
560.834	103.85
561.286	98.03
561.739	100.57
562.191	101.95
562.643	99.4
563.095	99.5
563.548	98.73
564	101.73
564.452	101.78
564.904	101.22
565.356	99.82
565.808	99.72
566.26	99.02
566.712	101.34
567.164	97.06
567.616	99.73
568.068	103.57
568.52	98.05
568.972	101.82
569.424	99.92
569.876	100.91
570.327	100.85
570.779	99.44
571.231	96.29
571.682	98.33
572.134	97.39
572.586	100.27
573.037	100.31
573.489	101.19
573.941	101.14
574.392	101.23
574.844	100.22
575.295	98.55
575.746	99.75
576.198	101.24
576.649	101.54
577.101	97.19
577.552	98.37
578.003	101.04
578.454	101.03
578.906	98.28
579.357	100.22
579.808	101.78
580.259	99.38
580.71	100.22
581.161	101.41
581.612	100.34
582.064	98.59
582.515	100.46
582.965	100.81
583.416	102.06
583.867	99.84
584.318	100.26
584.769	97.21
585.22	100.64
585.671	100.38
586.122	100.01
586.572	103.15
587.023	100.68
587.474	100.61
587.924	99.33
588.375	101.42
588.826	102.07
589.276	96.3
589.727	97.9
590.177	100.01
590.628	98.04
591.078	101.93
591.529	97.62
591.979	100.9
592.429	97.96
592.88	101.04
593.33	100.47
593.78	104.3
594.231	102.5
594.681	100.9
595.131	99.63
595.581	100.81
596.031	97.98
596.481	100.95
596.932	102.11
597.382	100.96
597.832	102.57
598.282	99.55
598.732	101.88
599.182	98.49
599.632	98.44
600.081	99.31
600.531	99.26
600.981	101.98
601.431	101.19
601.881	99.4
602.33	98.15
602.78	98.47
603.23	101.22
603.679	99.52
604.129	100.29
604.579	99.24
605.028	97.89
605.478	98.47
605.927	100.67
606.377	99.08
606.826	95.8
607.276	98.99
607.725	100.7
608.175	98.22
608.624	99.44
609.073	97.17
609.522	101.03
609.972	99.19
610.421	101.71
610.87	103.07
611.319	99.82
611.768	99.6
612.218	101.47
612.667	99.72
613.116	99.69
613.565	101.83
614.014	99.09
614.463	100.29
614.912	101.79
615.361	102.06
615.81	102.11
616.258	100.32
616.707	100.66
617.156	99.63
617.605	98.12
618.054	99.3
618.502	94.53
618.951	100.97
619.4	99.91
619.848	99.78
620.297	100.2
620.745	101.57
621.194	101.21
621.642	98.64
622.091	102.44
622.539	99.01
622.988	100.6
623.436	102.63
623.885	101.45
624.333	100.78
624.781	101.23
625.23	101.43
625.678	100.22
626.126	100.72
626.574	100.09
627.022	101.51
627.471	95.57
627.919	102.27
628.367	101.49
628.815	97.62
629.263	101.62
629.711	98.99
630.159	99.89
630.607	99.33
631.055	102.3
631.503	99.4
631.95	99.23
632.398	96.26
632.846	98.48
633.294	99.62
633.742	99.57
634.189	99.87
634.637	101.39
635.085	100.11
635.532	99.6
635.98	101.42
636.427	98.27
636.875	100.78
637.323	97.6
637.77	98.96
638.217	99.18
638.665	99.87
639.112	101.68
639.56	98.49
640.007	99.74
640.454	101.25
640.902	99.64
641.349	101.23
641.796	102.37
642.243	100.71
642.69	99.69
643.138	99.67
643.585	98.94
644.032	100.32
644.479	99.59
644.926	99.83
645.373	99.93
645.82	101.55
646.267	97.97
646.714	100.21
647.161	101.51
647.607	100.95
648.054	102.03
648.501	99.14
648.948	99.53
649.395	98.73
649.841	100.05
650.288	100.33
650.735	100.25
651.181	98.24
651.628	102.72
652.075	100.69
652.521	102.22
652.968	101.47
653.414	100
653.861	100.97
654.307	101.94
654.753	98.21
655.2	99.93
655.646	99.06
656.092	101.64
656.539	100.24
656.985	98.86
657.431	101.15
657.877	98.66
658.324	100.54
658.77	100.97
659.216	99.84
659.662	100.48
660.108	100.67
660.554	98.47
661	98.52
661.446	99.84
661.892	100.76
662.338	98.68
662.784	101.37
663.23	95.88
663.675	100.68
664.121	100.97
664.567	97.76
665.013	99.63
665.458	102.72
665.904	99.77
666.35	99.64
666.795	99.87
667.241	100.68
667.687	100.52
668.132	98.05
668.578	101.15
669.023	97.79
669.469	100.55
669.914	102.12
670.359	99.28
670.805	100.77
671.25	101.96
671.695	98.1
672.141	99.54
672.586	101.7
673.031	101.01
673.476	99.33
673.922	101.23
674.367	100.68
674.812	97.49
675.257	100.25
675.702	99.07
676.147	96.95
676.592	98.2
677.037	98.81
677.482	99.59
677.927	99.4
678.372	99.21
678.817	99.76
679.261	100.79
679.706	101.25
680.151	98.27
680.596	100.54
681.04	98.75
681.485	101.2
681.93	98.87
682.374	100.45
682.819	100.49
683.264	99.87
683.708	100.54
684.153	99.62
684.597	98.48
685.042	101.14
685.486	98.73
685.93	98.39
686.375	102.66
686.819	99.21
687.263	98.83
687.708	99.6
688.152	101.23
688.596	98.77
689.04	101.05
689.485	102.16
689.929	101.77
690.373	99.05
690.817	99.54
691.261	98.68
691.705	100.69
692.149	97.95
692.593	100.07
693.037	99.56
693.481	99.39
693.925	101.23
694.369	101.65
694.812	99.85
695.256	101.93
695.7	101.22
696.144	100.3
696.587	99.36
697.031	102.01
697.475	99.4
697.918	99.59
698.362	98.15
698.806	98.79
699.249	99.44
699.693	99.27
700.136	99.82
700.58	100.04
701.023	100.36
701.466	100.32
701.91	99.33
702.353	100.53
702.796	100.12
703.24	100.04
703.683	98.57
704.126	102.43
704.569	99.74
705.013	100.8
705.456	100.59
705.899	101.05
706.342	100.15
706.785	99.51
707.228	99.32
707.671	98.48
708.114	98.46
708.557	100.12
709	98.57
709.443	101.65
709.886	101.21
710.328	99.32
710.771	99.22
711.214	99.74
711.657	99.34
712.099	99.4
712.542	99.82
712.985	99.82
713.427	98.67
713.87	99.9
714.313	100.8
714.755	98.75
715.198	98.69
715.64	98.43
716.083	98.52
716.525	99.38
716.967	99.62
717.41	100.71
717.852	99.03
718.295	101.6
718.737	99.95
719.179	98.71
719.621	99.22
720.063	99.65
720.506	101.1
720.948	101.28
721.39	98.6
721.832	96.98
722.274	99.88
722.716	99.81
723.158	99.38
723.6	99.63
724.042	99.79
724.484	99.42
724.926	99.53
725.368	99.98
725.81	99.2
726.251	100.17
726.693	99.84
727.135	100.75
727.577	98.57
728.018	100.78
728.46	98.98
728.902	99.89
729.343	100.51
729.785	100.06
730.226	100.55
730.668	97.98
731.109	99.44
731.551	98.53
731.992	98.34
732.434	99.66
732.875	98.99
733.316	98.07
733.758	99.56
734.199	99.93
734.64	101.08
735.081	99.97
735.523	101.22
735.964	101.61
736.405	101.02
736.846	100.94
737.287	99
737.728	98.76
738.169	99.97
738.61	97.87
739.051	101.01
739.492	99
739.933	98.81
740.374	100.15
740.815	99.02
741.256	100.42
741.696	98.33
742.137	101.5
742.578	98.68
743.019	99.83
743.459	99.66
743.9	100.29
744.341	98.24
744.781	98.98
745.222	99.32
745.662	100.96
746.103	99.82
746.543	99.23
746.984	100.76
747.424	99.88
747.865	100.6
748.305	99.72
748.745	100.67
749.186	100.37
749.626	99.47
750.066	101.07
750.506	98.33
750.947	99.78
751.387	98.01
751.827	100.9
752.267	99.35
752.707	100.32
753.147	98.57
753.587	100.33
754.027	101.14
754.467	98.54
754.907	99.31
755.347	101.01
755.787	99.58
756.227	102.59
756.667	100.47
757.107	99.99
757.546	100.09
757.986	101.27
758.426	101.36
758.865	98.53
759.305	99.54
759.745	101.17
760.184	100.2
760.624	100.17
761.063	100.48
761.503	101.14
761.943	98.26
762.382	101.31
762.821	99.62
763.261	100.87
763.7	100.26
764.14	100.74
764.579	99.16
765.018	101.22
765.457	100.27
765.897	99.8
766.336	100.43
766.775	100.27
767.214	100.88
767.653	99.57
768.092	101.67
768.531	98.98
768.97	100.51
769.409	100.82
769.848	100.25
770.287	99.83
770.726	99.39
771.165	100.17
771.604	99.87
772.043	100.2
772.482	98.67
772.92	101.25
773.359	99.6
773.798	100.37
774.237	99.26
774.675	98.6
775.114	100.15
775.553	98.28
775.991	98.71
776.43	99.74
776.868	101.13
777.307	98.69
777.745	98.95
778.184	99.27
778.622	99.25
779.06	99.62
779.499	101.84
779.937	101.07
780.375	99.51
780.814	100.47
781.252	100.45
781.69	99.45
782.128	100.04
782.566	100.39
783.004	99.65
783.443	101.31
783.881	99.7
784.319	100.19
784.757	101.03
785.195	99.28
785.633	100.12
786.071	100.78
786.508	99.04
786.946	100.74
