Data from JCR0031_SpectralonRef_Reflection_00001.txt Node
Date: Fri Jul 31 14:16:16 ACST 2020
User: Stacey Dix
Spectrometer: MAYP113282
Scans to average: 1
Trigger mode: 0
Integration Time (sec): 1.000000E-1
Electric dark correction enabled: true
Boxcar width: 0
XAxis mode: Wavelengths
Number of Pixels in Spectrum: 2068
>>>>>Begin Spectral Data<<<<<
198.791	0
199.266	16.67
199.74	100
200.215	-100
200.69	98.11
201.164	83.02
201.639	106.67
202.114	87.8
202.588	108.54
203.063	107.87
203.537	113.16
204.012	132
204.486	95.83
204.961	91.89
205.435	92.86
205.909	89.32
206.384	112.15
206.858	110.53
207.332	96.59
207.807	89.92
208.281	87.29
208.755	88.72
209.229	91.37
209.703	87.16
210.177	77.44
210.651	106.25
211.126	94.81
211.6	100
212.074	75
212.548	113.93
213.021	108.27
213.495	88.96
213.969	82.47
214.443	103.61
214.917	81.48
215.391	96.51
215.864	107.02
216.338	103.07
216.812	104.9
217.286	95.83
217.759	105.71
218.233	95.65
218.706	89.67
219.18	78.26
219.654	95.6
220.127	86.45
220.6	104.94
221.074	100.38
221.547	91.05
222.021	97.21
222.494	107.48
222.967	96.42
223.441	87.54
223.914	101.61
224.387	103.99
224.86	108.45
225.334	100
225.807	106.21
226.28	88.55
226.753	103.84
227.226	95.28
227.699	100.49
228.172	100.31
228.645	94.8
229.118	96.86
229.591	96.62
230.064	100
230.537	106.13
231.01	92.33
231.482	99.71
231.955	94.95
232.428	95.66
232.901	97.6
233.373	96.18
233.846	91.81
234.319	101.15
234.791	99.1
235.264	98.41
235.736	104.22
236.209	99.69
236.681	98.26
237.154	97.56
237.626	97.4
238.099	101.23
238.571	96.78
239.044	98.63
239.516	100.29
239.988	98.71
240.46	98.79
240.933	99.91
241.405	98.83
241.877	98.76
242.349	101.69
242.821	104.3
243.293	98.12
243.765	98.8
244.237	100.66
244.71	100.49
245.181	101.41
245.653	98.42
246.125	99.42
246.597	101.28
247.069	98.48
247.541	97.26
248.013	99.56
248.485	102.44
248.956	98.99
249.428	100.43
249.9	100.71
250.371	102.94
250.843	99.28
251.315	99.74
251.786	97.71
252.258	100.13
252.729	98.44
253.201	100.8
253.672	101.05
254.144	99.03
254.615	99.63
255.086	101.17
255.558	100.12
256.029	98.15
256.5	99.54
256.972	99.95
257.443	100.12
257.914	99.64
258.385	100.05
258.856	101.1
259.327	99.86
259.799	98.52
260.27	100.72
260.741	99.86
261.212	100.32
261.683	101.38
262.154	99.7
262.624	100.6
263.095	98.13
263.566	101.23
264.037	99.66
264.508	100.14
264.979	100.71
265.449	99.68
265.92	101.86
266.391	101.93
266.861	99.49
267.332	99.07
267.803	98.76
268.273	102.88
268.744	101.18
269.214	98.17
269.685	97.52
270.155	100.67
270.626	98.1
271.096	100.11
271.566	100.58
272.037	102.81
272.507	101.1
272.977	102.03
273.448	100.71
273.918	102.14
274.388	101.46
274.858	99.44
275.328	100.16
275.798	100.26
276.268	100.81
276.738	100.7
277.208	100.58
277.678	101.36
278.148	99.48
278.618	100.36
279.088	99.97
279.558	99.87
280.028	101.28
280.498	102.36
280.968	100.3
281.437	104.02
281.907	101.62
282.377	101.6
282.847	96.26
283.316	100.61
283.786	100.1
284.255	100.03
284.725	99.05
285.194	100.02
285.664	102.35
286.133	98.59
286.603	99.4
287.072	98.37
287.542	100.05
288.011	97.59
288.48	98.94
288.95	99.49
289.419	99.81
289.888	100.09
290.357	99.51
290.827	101.01
291.296	99.34
291.765	101.54
292.234	100.38
292.703	101.34
293.172	100.6
293.641	97.48
294.11	99.66
294.579	99.86
295.048	99.19
295.517	98.84
295.986	99.21
296.455	100.13
296.923	99.12
297.392	99.49
297.861	100.95
298.33	100.34
298.798	99.76
299.267	102.16
299.736	100.16
300.204	100.62
300.673	101.36
301.141	101.93
301.61	99.73
302.079	101.65
302.547	97.97
303.015	100.57
303.484	100.11
303.952	100.33
304.421	99.57
304.889	99.56
305.357	101.06
305.825	97.42
306.294	99.05
306.762	96.44
307.23	100.49
307.698	100.78
308.166	100.6
308.634	99.33
309.103	98.99
309.571	103.65
310.039	96.42
310.507	98.59
310.975	101.33
311.442	100.3
311.91	100.74
312.378	98.44
312.846	101.81
313.314	98.34
313.782	100.54
314.249	101.47
314.717	100.51
315.185	97.68
315.652	102.14
316.12	101.09
316.588	99.35
317.055	97.63
317.523	100.4
317.99	99.31
318.458	101.05
318.925	98.73
319.393	99.18
319.86	99.82
320.328	99.82
320.795	98.92
321.262	99.49
321.73	99.13
322.197	100.91
322.664	99.39
323.131	100.45
323.598	100.12
324.066	99.38
324.533	100.92
325	98.17
325.467	98.74
325.934	98.3
326.401	99.12
326.868	98.99
327.335	100.18
327.802	100.33
328.269	101.22
328.735	99.52
329.202	97.78
329.669	101.11
330.136	100.21
330.603	102.56
331.069	99.97
331.536	100.44
332.003	101.91
332.469	100.35
332.936	99.38
333.402	98.81
333.869	97.89
334.336	101.77
334.802	101.23
335.268	100.86
335.735	99.26
336.201	100.61
336.668	102.4
337.134	99.28
337.6	99.13
338.067	98.21
338.533	100.57
338.999	97.62
339.465	99.12
339.931	99.94
340.398	100.06
340.864	100
341.33	96.76
341.796	99.94
342.262	97.4
342.728	101.33
343.194	98.48
343.66	99.3
344.126	97.62
344.592	102.28
345.057	97.67
345.523	99.48
345.989	98.95
346.455	98.28
346.921	100.2
347.386	103.14
347.852	101.69
348.318	101.09
348.783	100.59
349.249	98.89
349.714	101.33
350.18	101.41
350.645	102.75
351.111	102.78
351.576	100.07
352.042	101.75
352.507	100.38
352.973	99.4
353.438	96.51
353.903	99.69
354.369	100.92
354.834	97.88
355.299	98.74
355.764	101.31
356.229	99.61
356.695	102.03
357.16	98.06
357.625	100.32
358.09	99.27
358.555	99.18
359.02	99.44
359.485	100.37
359.95	98.56
360.415	98.56
360.879	100.92
361.344	96.5
361.809	98.4
362.274	100.73
362.739	100
363.203	100.68
363.668	101.27
364.133	99.17
364.597	99.4
365.062	100.83
365.527	99.16
365.991	102.49
366.456	97.15
366.92	97.36
367.385	101.92
367.849	101.23
368.314	100.24
368.778	98.38
369.242	98.49
369.707	98.28
370.171	95.53
370.635	99.04
371.1	102.11
371.564	98.41
372.028	99.11
372.492	104.11
372.956	101.81
373.42	100.04
373.884	100.63
374.348	99.42
374.812	99.54
375.276	98.74
375.74	98.05
376.204	98.43
376.668	96.64
377.132	98.81
377.596	99.12
378.06	97.69
378.524	98.52
378.987	100.58
379.451	97.76
379.915	98.48
380.378	99.86
380.842	101.22
381.306	99.41
381.769	98.72
382.233	98.44
382.696	96.8
383.16	97.13
383.623	98.41
384.087	100.48
384.55	101.44
385.014	100.84
385.477	100.56
385.94	99.81
386.404	102.23
386.867	101.22
387.33	96.81
387.793	102.31
388.256	100.07
388.72	99.09
389.183	99.62
389.646	100.28
390.109	103.43
390.572	100.76
391.035	98.69
391.498	99.77
391.961	99.25
392.424	100.83
392.887	99.04
393.35	99.29
393.812	99.6
394.275	100.25
394.738	99.1
395.201	99.35
395.664	100.1
396.126	99.64
396.589	96.92
397.052	101.92
397.514	101.69
397.977	96.85
398.439	97.42
398.902	101.39
399.364	100.54
399.827	98.06
400.289	101.21
400.752	100.04
401.214	100.15
401.676	101.72
402.139	101.3
402.601	101.68
403.063	102.75
403.525	98.04
403.988	100.89
404.45	99.77
404.912	102.8
405.374	100.75
405.836	98.51
406.298	97.68
406.76	101.88
407.222	99.36
407.684	97.17
408.146	95.96
408.608	99.82
409.07	98.99
409.532	97.43
409.994	99.25
410.456	99.33
410.917	97.67
411.379	100.07
411.841	98.54
412.303	98.42
412.764	95.73
413.226	102.74
413.687	98.78
414.149	98.89
414.611	100.36
415.072	100.3
415.534	99.26
415.995	98.45
416.457	98.34
416.918	102.74
417.379	100.89
417.841	100.41
418.302	99.02
418.763	100.65
419.225	100.2
419.686	99.17
420.147	98.35
420.608	99.74
421.069	99.74
421.53	98.62
421.991	99.1
422.453	100.32
422.914	99.54
423.375	99.54
423.836	96.38
424.297	101.95
424.757	100.62
425.218	99.32
425.679	97.22
426.14	99.87
426.601	97.67
427.062	102.5
427.522	101.36
427.983	101.6
428.444	99.59
428.904	99.45
429.365	99.95
429.826	96.77
430.286	98.27
430.747	99.42
431.207	100.92
431.668	100.83
432.128	99.05
432.589	100.21
433.049	100.07
433.509	97.63
433.97	99.42
434.43	100.57
434.89	97.94
435.351	101.86
435.811	102.97
436.271	99.64
436.731	98.6
437.191	100.06
437.651	101.43
438.112	98.86
438.572	98.81
439.032	101.18
439.492	100
439.952	100.4
440.412	100.4
440.871	102.33
441.331	102.53
441.791	102.52
442.251	100.17
442.711	100.34
443.171	102.5
443.63	100.06
444.09	98.99
444.55	104.2
445.009	101.29
445.469	98.15
445.929	100.65
446.388	99.15
446.848	97.48
447.307	97.95
447.767	101.54
448.226	98.86
448.686	98.26
449.145	101.95
449.604	99.44
450.064	96.08
450.523	100.26
450.982	100
451.442	97.65
451.901	102.62
452.36	100
452.819	100.68
453.278	97.05
453.737	99.64
454.197	100.05
454.656	99.32
455.115	99.37
455.574	98.57
456.033	101.89
456.492	101.86
456.95	100.11
457.409	100.9
457.868	102.71
458.327	101.71
458.786	102.92
459.245	99.29
459.703	99.32
460.162	102.19
460.621	102.87
461.079	96.18
461.538	98.77
461.997	99.47
462.455	101.33
462.914	102.3
463.372	97.85
463.831	101.74
464.289	100.41
464.748	103.67
465.206	98.79
465.664	101.88
466.123	97.69
466.581	100.3
467.039	104.02
467.497	100.55
467.956	102.97
468.414	101.29
468.872	99.14
469.33	98.46
469.788	100.06
470.246	102.37
470.704	98.31
471.162	100.39
471.62	97.82
472.078	102.61
472.536	100.74
472.994	98.9
473.452	100.06
473.91	98.78
474.368	97.99
474.826	96.59
475.283	100.78
475.741	102.68
476.199	94.15
476.656	97.19
477.114	100.99
477.572	99.61
478.029	100.2
478.487	102.08
478.944	98.19
479.402	100.73
479.859	98.31
480.317	102.7
480.774	100.66
481.232	100.93
481.689	100.66
482.146	101.8
482.604	99.15
483.061	96.87
483.518	99.87
483.975	98.94
484.433	96.1
484.89	96.02
485.347	99.6
485.804	99.4
486.261	105.09
486.718	104.69
487.175	100.93
487.632	101.67
488.089	100.2
488.546	97.87
489.003	99.8
489.46	100.54
489.917	98.83
490.373	101.46
490.83	98.52
491.287	98.78
491.744	104.06
492.2	101.65
492.657	102.27
493.114	101.36
493.57	109.66
494.027	96.05
494.484	101.03
494.94	102.44
495.397	99.34
495.853	102.37
496.31	99.86
496.766	101.91
497.222	101
497.679	100
498.135	101.31
498.591	96.04
499.048	100.92
499.504	99.57
499.96	102.67
500.416	98.52
500.872	99.43
501.329	103.5
501.785	94.83
502.241	103.28
502.697	101.76
503.153	103.09
503.609	101.87
504.065	96.9
504.521	101.77
504.977	94.7
505.432	99.43
505.888	101.18
506.344	101.29
506.8	100.22
507.256	101.38
507.711	99.19
508.167	100.21
508.623	95.65
509.078	95.25
509.534	100.72
509.99	100.57
510.445	99.64
510.901	102.24
511.356	102.48
511.812	96.3
512.267	99.45
512.722	104.27
513.178	98.12
513.633	99.05
514.089	103.23
514.544	98.6
514.999	103.42
515.454	97.34
515.91	99.17
516.365	100.18
516.82	101.05
517.275	97.95
517.73	97.46
518.185	97.31
518.64	100.22
519.095	96.2
519.55	96.94
520.005	99.46
520.46	98.16
520.915	102.96
521.37	99.06
521.825	101.36
522.28	98.16
522.734	100.86
523.189	100.41
523.644	100.76
524.099	102.05
524.553	99.1
525.008	98.07
525.462	102.64
525.917	101.72
526.372	97.59
526.826	97.33
527.281	105.68
527.735	100.89
528.19	99.32
528.644	99.1
529.098	98.93
529.553	97.12
530.007	102.95
530.461	100.19
530.916	100.73
531.37	100
531.824	101.13
532.278	103.33
532.732	95.94
533.186	99.07
533.641	103.22
534.095	104.02
534.549	102.1
535.003	99.9
535.457	99.6
535.911	100.51
536.365	101.11
536.818	99.14
537.272	99.64
537.726	104.23
538.18	99.07
538.634	102.45
539.087	101.88
539.541	99.34
539.995	101.46
540.449	100.78
540.902	101.35
541.356	98.89
541.809	98.83
542.263	100.46
542.716	100.51
543.17	100.46
543.623	98.11
544.077	99.9
544.53	101.52
544.984	97.28
545.437	98.34
545.89	101.92
546.344	97.98
546.797	101.38
547.25	98.75
547.703	96.74
548.157	100.83
548.61	97.47
549.063	99.91
549.516	99.03
549.969	100.19
550.422	104.36
550.875	98.88
551.328	100.69
551.781	102.84
552.234	102.77
552.687	98.9
553.14	100.71
553.592	101.25
554.045	97.14
554.498	100.47
554.951	97.5
555.404	100.59
555.856	97.71
556.309	99.31
556.762	99.92
557.214	100.9
557.667	102.35
558.119	98.15
558.572	100.78
559.024	97.37
559.477	97.97
559.929	101.13
560.382	96.75
560.834	98.48
561.286	100.88
561.739	100.29
562.191	100.43
562.643	99.43
563.095	100.35
563.548	100.92
564	101.45
564.452	97.34
564.904	100.59
565.356	99.28
565.808	100.44
566.26	101.56
566.712	105.05
567.164	99.77
567.616	101.45
568.068	100.13
568.52	100.33
568.972	97.41
569.424	98.74
569.876	100.89
570.327	99.94
570.779	100.82
571.231	100.69
571.682	101.71
572.134	101.61
572.586	96.28
573.037	100.74
573.489	102.54
573.941	98.34
574.392	101.85
574.844	102.17
575.295	98.65
575.746	98.35
576.198	101.37
576.649	98.14
577.101	101.01
577.552	100.3
578.003	100.51
578.454	100.03
578.906	99.94
579.357	99.37
579.808	97.16
580.259	99.85
580.71	99.47
581.161	100.27
581.612	100.03
582.064	100.81
582.515	100.85
582.965	101.14
583.416	100.03
583.867	97.77
584.318	98.17
584.769	99.08
585.22	99.43
585.671	100.51
586.122	99.91
586.572	99.58
587.023	100.95
587.474	99.61
587.924	101.11
588.375	100.33
588.826	100.97
589.276	102.76
589.727	98.84
590.177	99.82
590.628	100.94
591.078	98.47
591.529	99.16
591.979	101.25
592.429	100.15
592.88	99.49
593.33	97.84
593.78	99.03
594.231	101.11
594.681	102.46
595.131	99.55
595.581	100.06
596.031	99.55
596.481	102.06
596.932	99.79
597.382	99.85
597.832	97.97
598.282	97.43
598.732	99.46
599.182	101.57
599.632	100.98
600.081	101.22
600.531	100.56
600.981	100.65
601.431	100.2
601.881	100.58
602.33	101.14
602.78	96.88
603.23	99.12
603.679	101.95
604.129	99.45
604.579	100.08
605.028	99.63
605.478	100.64
605.927	99.52
606.377	99.8
606.826	99.38
607.276	101.65
607.725	100.78
608.175	99.59
608.624	99.59
609.073	98.59
609.522	102.03
609.972	100.84
610.421	98.79
610.87	101.06
611.319	102.02
611.768	101.41
612.218	99.35
612.667	101.19
613.116	101.84
613.565	99.75
614.014	98.9
614.463	101.28
614.912	101.53
615.361	99.48
615.81	99.19
616.258	98.2
616.707	100.55
617.156	100.36
617.605	100.1
618.054	100.09
618.502	98.46
618.951	100.56
619.4	99.25
619.848	100.84
620.297	100.14
620.745	97.51
621.194	100.57
621.642	99.5
622.091	101.04
622.539	98.94
622.988	98.6
623.436	98.76
623.885	101.34
624.333	100.29
624.781	100.84
625.23	100.67
625.678	99.74
626.126	100.51
626.574	100.04
627.022	97.58
627.471	97.64
627.919	100.02
628.367	101.4
628.815	100.19
629.263	102.27
629.711	100.2
630.159	99.68
630.607	98.58
631.055	100.04
631.503	100.91
631.95	99.15
632.398	100.57
632.846	100.08
633.294	101.16
633.742	99.42
634.189	99.86
634.637	98.64
635.085	101.97
635.532	98.1
635.98	99.29
636.427	99.56
636.875	99.47
637.323	99.35
637.77	98.93
638.217	100.61
638.665	98.79
639.112	98.89
639.56	99.07
640.007	101.45
640.454	100.89
640.902	99.85
641.349	98.62
641.796	100.47
642.243	98.91
642.69	97.71
643.138	99.54
643.585	101.71
644.032	102.52
644.479	102.21
644.926	100.13
645.373	101.09
645.82	99.58
646.267	98.6
646.714	102.35
647.161	97.89
647.607	100.73
648.054	101.42
648.501	100.49
648.948	98.23
649.395	99.8
649.841	100.63
650.288	98.51
650.735	98.87
651.181	100.23
651.628	99.8
652.075	99.75
652.521	98.7
652.968	100.29
653.414	99.7
653.861	101.89
654.307	98.27
654.753	100.75
655.2	101.08
655.646	98.55
656.092	100.05
656.539	100.53
656.985	102.66
657.431	99.97
657.877	101.51
658.324	99.04
658.77	101.27
659.216	99.74
659.662	100.14
660.108	99.59
660.554	100.78
661	100.48
661.446	99.32
661.892	100.54
662.338	98.98
662.784	100.51
663.23	100.32
663.675	99.82
664.121	100.07
664.567	101.03
665.013	99.33
665.458	99.17
665.904	101.87
666.35	99.58
666.795	99.17
667.241	101.74
667.687	100
668.132	99.81
668.578	100.21
669.023	100.62
669.469	99.73
669.914	98.89
670.359	99.06
670.805	101.62
671.25	102.19
671.695	100.29
672.141	100.12
672.586	98.62
673.031	101.3
673.476	100.22
673.922	100.71
674.367	99.3
674.812	100.18
675.257	101.73
675.702	99.99
676.147	99.15
676.592	99.59
677.037	98.21
677.482	100.53
677.927	99.1
678.372	100.61
678.817	99.56
679.261	100.1
679.706	100.9
680.151	99.96
680.596	101.11
681.04	98.72
681.485	101.46
681.93	99.99
682.374	101.41
682.819	99.86
683.264	98.65
683.708	100.21
684.153	101.39
684.597	99.27
685.042	99.36
685.486	98.79
685.93	97.71
686.375	97.9
686.819	99.41
687.263	100.09
687.708	100.32
688.152	102.29
688.596	100.52
689.04	98.72
689.485	101.25
689.929	99.94
690.373	100.67
690.817	98.68
691.261	100.28
691.705	99.25
692.149	99.08
692.593	101.07
693.037	102.01
693.481	100.6
693.925	99.29
694.369	100.59
694.812	100.32
695.256	100.8
695.7	100.56
696.144	99.29
696.587	99.5
697.031	99.83
697.475	99.62
697.918	100.31
698.362	99.64
698.806	99.63
699.249	101.33
699.693	100.72
700.136	98.44
700.58	99.81
701.023	98.8
701.466	99.66
701.91	99.77
702.353	100.53
702.796	100.36
703.24	101.15
703.683	100.07
704.126	100.53
704.569	98.88
705.013	101
705.456	100.55
705.899	100.5
706.342	97.79
706.785	99.87
707.228	100.28
707.671	99.73
708.114	102.37
708.557	99.92
709	99.19
709.443	99.99
709.886	100.12
710.328	99.89
710.771	100.65
711.214	99.12
711.657	100.89
712.099	99
712.542	99.73
712.985	99.95
713.427	100.56
713.87	101.94
714.313	101.27
714.755	99.06
715.198	101.42
715.64	99.07
716.083	101.55
716.525	99.27
716.967	97.92
717.41	99.31
717.852	99.73
718.295	99.07
718.737	101.81
719.179	100.12
719.621	99.08
720.063	100.92
720.506	98.26
720.948	100.68
721.39	100.46
721.832	98.8
722.274	101.27
722.716	102
723.158	100.15
723.6	99.37
724.042	99.84
724.484	99
724.926	101.07
725.368	99.84
725.81	98.64
726.251	99.9
726.693	99.35
727.135	99.76
727.577	101.01
728.018	100.37
728.46	99.55
728.902	100.45
729.343	101.28
729.785	98.82
730.226	100.92
730.668	98.93
731.109	99.84
731.551	101.33
731.992	100.23
732.434	99.12
732.875	98.66
733.316	100.48
733.758	99.04
734.199	100.21
734.64	99.82
735.081	101.31
735.523	99.39
735.964	100.44
736.405	98.69
736.846	100.59
737.287	100.26
737.728	100.62
738.169	99.69
738.61	100.45
739.051	101.66
739.492	101.54
739.933	100.14
740.374	102.18
740.815	101.12
741.256	100.3
741.696	99.73
742.137	99.31
742.578	101.09
743.019	101.49
743.459	99.36
743.9	99.48
744.341	98.69
744.781	99.72
745.222	100.78
745.662	99.72
746.103	101.08
746.543	100.44
746.984	100.67
747.424	98.48
747.865	98.14
748.305	100.35
748.745	99.67
749.186	101.4
749.626	99.3
750.066	99.42
750.506	100.08
750.947	100.96
751.387	100.67
751.827	99.63
752.267	99.6
752.707	98.73
753.147	99.82
753.587	101.41
754.027	99.04
754.467	100.71
754.907	99.89
755.347	100.61
755.787	100.63
756.227	100.01
756.667	101.78
757.107	100.61
757.546	99.79
757.986	98.49
758.426	100.8
758.865	101.78
759.305	99.03
759.745	100.3
760.184	99.56
760.624	101.27
761.063	100.57
761.503	100.81
761.943	99.63
762.382	100.24
762.821	98.63
763.261	102
763.7	98.76
764.14	98.7
764.579	99.13
765.018	101.26
765.457	101.53
765.897	100.07
766.336	100.36
766.775	101.43
767.214	100.29
767.653	99.98
768.092	100.15
768.531	101.37
768.97	99.01
769.409	99.41
769.848	100.87
770.287	99.83
770.726	100.38
771.165	100.56
771.604	100.13
772.043	100.04
772.482	99.27
772.92	100.05
773.359	99.44
773.798	100.12
774.237	100.16
774.675	100.58
775.114	99.74
775.553	100.98
775.991	98.08
776.43	100.36
776.868	99.51
777.307	100.42
777.745	99.76
778.184	100.58
778.622	99.95
779.06	99.8
779.499	99.17
779.937	101.84
780.375	99.64
780.814	101.98
781.252	101.04
781.69	99.33
782.128	99.64
782.566	99.89
783.004	100.3
783.443	101.23
783.881	100.89
784.319	99.09
784.757	101.41
785.195	99.85
785.633	100.84
786.071	98.72
786.508	100.85
